SpectraSuite Datei
++++++++++++++++++++++++++++++++++++
Datum: Thu Jan 01 04:20:59 CET 2004
Benutzer: H. Stützler
Dark-Spektrum vorhanden: Nein
Referenz-Spektrum vorhanden: Nein
Zahl der probierten Teilspektren: 1
Spektrometer: USB2+H04734
Integrationszeit (usec): 10000000 (USB2+H04734)
Spektren Durchschnitt berechnet: 1 (USB2+H04734)
Boxcar Glättung: 0 (USB2+H04734)
Dunkelstromkorrektur: Nein (USB2+H04734)
Puls/Lampe aktiviert: Nein (USB2+H04734)
Correct for Detector Non-linearity: Nein (USB2+H04734)
Streulichtkorrektur: Nein (USB2+H04734)
Anzahl Pixel in verarbeitetem Spektrum: 2048
>>>>>Begin Processed Spectral Data<<<<<
418,45	1294,88
418,57	1294,88
418,69	1294,88
418,80	1188,67
418,92	1188,67
419,04	3367,14
419,16	1995,43
419,28	2065,48
419,40	1927,63
419,52	2101,64
419,64	1905,03
419,75	1882,44
419,87	1905,03
419,99	1837,24
420,11	1947,97
420,23	1977,35
420,35	2406,72
420,47	2198,81
420,58	1882,44
420,70	2239,49
420,82	2103,90
420,94	2456,43
421,06	2849,64
421,18	2454,17
421,29	2675,64
421,41	3430,42
421,53	3665,44
421,65	4182,94
421,77	4094,81
421,89	3717,42
422,00	4506,10
422,12	3708,38
422,24	3701,60
422,36	4445,08
422,48	4370,51
422,59	3796,51
422,71	4142,26
422,83	3514,03
422,95	3627,02
423,07	4056,39
423,18	4537,73
423,30	4171,64
423,42	3622,50
423,54	3925,32
423,66	3645,10
423,77	3902,72
423,89	3812,33
424,01	3636,06
424,13	3538,89
424,25	3624,76
424,36	4067,69
424,48	3952,44
424,60	3760,35
424,72	4460,90
424,84	3789,73
424,95	4438,30
425,07	3936,62
425,19	4008,93
425,31	4069,95
425,42	3597,65
425,54	4198,76
425,66	4058,65
425,78	3787,47
425,89	3954,70
426,01	3891,42
426,13	3934,36
426,25	4503,84
426,36	3945,66
426,48	4119,67
426,60	4289,15
426,72	4017,97
426,83	4311,75
426,95	4300,45
427,07	3990,86
427,19	5073,31
427,30	4067,69
427,42	3764,87
427,54	3810,07
427,66	3898,20
427,77	3904,98
427,89	4191,98
428,01	4413,44
428,12	4415,70
428,24	3744,53
428,36	3934,36
428,48	3909,50
428,59	4017,97
428,71	4237,18
428,83	3999,89
428,94	4144,52
429,06	4162,60
429,18	4526,43
429,30	4415,70
429,41	4065,43
429,53	4747,90
429,65	4741,12
429,76	4632,65
429,88	4155,82
430,00	4503,84
430,11	4863,15
430,23	4237,18
430,35	5274,44
430,47	4402,14
430,58	4047,35
430,70	4840,55
430,82	4594,23
430,93	6112,83
431,05	4537,73
431,17	4474,46
431,28	4903,83
431,40	4334,35
431,52	5204,38
431,63	4173,90
431,75	4130,96
431,87	4594,23
431,98	5068,79
432,10	4571,63
432,22	4481,24
432,33	5195,34
432,45	4488,02
432,56	4662,02
432,68	4851,85
432,80	4440,56
432,91	4989,70
433,03	4677,84
433,15	5224,72
433,26	4781,80
433,38	4637,17
433,50	4262,03
433,61	5177,26
433,73	5328,67
433,84	4704,96
433,96	4415,70
434,08	4765,98
434,19	4628,13
434,31	4702,70
434,43	4756,94
434,54	4754,68
434,66	4347,91
434,77	4334,35
434,89	5147,89
435,01	4912,87
435,12	4481,24
435,24	4662,02
435,35	4693,66
435,47	5864,25
435,59	4953,54
435,70	4793,09
435,82	4878,97
435,93	5403,25
436,05	4921,90
436,17	4704,96
436,28	5089,13
436,40	5127,55
436,51	4826,99
436,63	4933,20
436,74	5480,08
436,86	5697,03
436,98	7455,17
437,09	4901,57
437,21	5391,95
437,32	4865,41
437,44	5513,98
437,55	5003,26
437,67	8987,33
437,79	6456,33
437,90	5410,03
438,02	4903,83
438,13	17305,76
438,25	5724,14
438,36	5410,03
438,48	5308,34
438,59	5773,86
438,71	5342,23
438,83	4915,12
438,94	4845,07
439,06	5821,32
439,17	5678,95
439,29	5021,34
439,40	5398,73
439,52	5186,30
439,63	5504,94
439,75	5039,42
439,86	4944,50
439,98	5330,93
440,09	5798,72
440,21	5260,88
440,32	5247,32
440,44	4949,02
440,55	5428,11
440,67	5367,09
440,78	5913,97
440,90	5120,77
441,01	5190,82
441,13	5190,82
441,24	5699,29
441,36	6158,03
441,47	5242,80
441,59	5803,24
441,70	5226,98
441,82	5932,05
441,93	5730,92
442,05	5025,86
442,16	5260,88
442,28	5249,58
442,39	5590,81
442,51	5943,35
442,62	5342,23
442,74	6060,86
442,85	5599,85
442,97	6643,89
443,08	5956,91
443,20	5956,91
443,31	5841,65
443,43	5482,34
443,54	5947,87
443,66	5267,66
443,77	5556,92
443,88	5263,14
444,00	5789,68
444,11	6200,97
444,23	6359,15
444,34	5518,50
444,46	5645,05
444,57	6404,35
444,69	6420,17
444,80	6042,78
444,91	7254,05
445,03	5473,30
445,14	6440,51
445,26	5570,48
445,37	5642,79
445,49	6015,66
445,60	6607,74
445,71	6741,07
445,83	6058,60
445,94	5611,15
446,06	6478,93
446,17	5730,92
446,29	5597,59
446,40	5986,28
446,51	6456,33
446,63	6022,44
446,74	5895,89
446,86	5819,06
446,97	6472,15
447,08	5954,65
447,20	6067,64
447,31	5819,06
447,43	6148,99
447,54	6298,14
447,65	6537,68
447,77	5893,63
447,88	6151,25
448,00	6365,93
448,11	5746,74
448,22	6029,22
448,34	6442,77
448,45	5925,27
448,56	6320,74
448,68	6458,59
448,79	6770,44
448,90	6519,60
449,02	6318,48
449,13	6336,56
449,25	6806,60
449,36	6280,06
449,47	6293,62
449,59	7335,40
449,70	6497,00
449,81	6207,75
449,93	6300,40
450,04	6483,45
450,15	6395,31
450,27	6578,36
450,38	6881,18
450,49	6497,00
450,61	7387,38
450,72	6408,87
450,83	6930,89
450,95	6309,44
451,06	6901,51
451,17	7441,61
451,29	6948,97
451,40	6417,91
451,51	6422,43
451,63	6284,58
451,74	7057,44
451,85	6614,52
451,97	7172,69
452,08	6741,07
452,19	6515,08
452,31	7319,58
452,42	7290,20
452,53	7583,98
452,65	7434,83
452,76	6422,43
452,87	6481,19
452,98	6492,48
453,10	6890,21
453,21	6481,19
453,32	6856,32
453,44	6684,57
453,55	6528,64
453,66	8241,59
453,77	7224,67
453,89	7328,62
454,00	7685,67
454,11	6978,35
454,23	7068,74
454,34	7125,24
454,45	6607,74
454,56	7339,92
454,68	8087,92
454,79	7059,70
454,90	7231,45
455,01	6826,94
455,13	6707,17
455,24	7922,96
455,35	6930,89
455,46	6677,79
455,58	6793,04
455,69	8067,58
455,80	7269,87
455,91	6896,99
456,03	7226,93
456,14	7701,49
456,25	6994,17
456,36	6829,20
456,48	7145,57
456,59	7864,20
456,70	7082,30
456,81	8033,69
456,92	8444,98
457,04	7681,15
457,15	8634,80
457,26	7021,28
457,37	7590,76
457,49	7342,18
457,60	7032,58
457,71	7640,48
457,82	7866,46
457,93	7547,82
458,05	8142,16
458,16	7226,93
458,27	7466,47
458,38	7773,81
458,49	7943,29
458,61	7443,87
458,72	7663,08
458,83	7602,06
458,94	7916,18
459,05	7809,96
459,17	10264,14
459,28	7272,13
459,39	7767,03
459,50	7310,54
459,61	8031,43
459,72	7556,86
459,84	7425,79
459,95	7945,55
460,06	10081,09
460,17	7626,92
460,28	7841,60
460,39	7771,55
460,51	8117,30
460,62	7931,99
460,73	7873,24
460,84	7475,51
460,95	8668,70
461,06	8905,98
461,18	8553,45
461,29	8650,62
461,40	7970,41
461,51	8139,90
461,62	9333,09
461,73	7974,93
461,84	8311,65
461,96	8431,42
462,07	8515,03
462,18	8065,32
462,29	8261,93
462,40	8652,88
462,51	8189,62
462,62	8948,92
462,73	9430,26
462,85	8499,21
462,96	8560,23
463,07	8754,57
463,18	9437,04
463,29	8637,06
463,40	8130,86
463,51	7961,37
463,62	8284,53
463,73	8786,21
463,85	8209,95
463,96	8447,24
464,07	8465,31
464,18	8490,17
464,29	8178,32
464,40	9529,69
464,51	8648,36
464,62	8578,31
464,73	8237,07
464,84	8680,00
464,95	8454,02
465,06	8813,33
465,18	8155,72
465,29	8910,50
465,40	8501,47
465,51	8521,81
465,62	9125,18
465,73	8682,26
465,84	8777,17
465,95	8921,80
466,06	8605,42
466,17	8623,50
466,28	8779,43
466,39	9498,06
466,50	8422,38
466,61	8411,08
466,72	9089,03
466,83	8476,61
466,95	8718,41
467,06	8639,32
467,17	8851,74
467,28	8854,00
467,39	8955,70
467,50	9400,88
467,61	8713,90
467,72	8722,93
467,83	8847,22
467,94	9168,12
468,05	8915,02
468,16	9335,35
468,27	9305,97
468,38	8933,10
468,49	9936,46
468,60	9075,47
468,71	9936,46
468,82	9936,46
468,93	9665,28
469,04	10157,92
469,15	9281,11
469,26	9183,94
469,37	9556,81
469,48	10279,96
469,59	9631,39
469,70	9299,19
469,81	9807,65
469,92	9138,74
470,03	9995,22
470,14	9493,54
470,25	10320,63
470,36	9586,19
470,47	9371,50
470,58	9366,99
470,69	10302,55
470,80	10101,43
470,91	9581,67
471,02	9771,49
471,13	9934,20
471,24	10133,07
471,35	9805,39
471,46	11088,97
471,56	10582,77
471,67	10702,54
471,78	10716,10
471,89	9728,56
472,00	10094,65
472,11	10411,03
472,22	10953,38
472,33	10422,32
472,44	10279,96
472,55	10223,46
472,66	10494,64
472,77	10424,58
472,88	11886,69
472,99	11059,60
473,10	9992,96
473,21	10395,21
473,32	10591,81
473,42	10191,82
473,53	10517,24
473,64	11168,07
473,75	11027,96
473,86	10858,47
473,97	11127,39
474,08	11111,57
474,19	11400,83
474,30	12119,46
474,41	11242,64
474,52	10937,57
474,62	11084,45
474,73	10890,11
474,84	12139,79
474,95	11281,06
475,06	11400,83
475,17	10707,06
475,28	10630,23
475,39	10926,27
475,50	10964,68
475,60	10713,84
475,71	11294,62
475,82	12010,98
475,93	11107,05
476,04	12076,52
476,15	11353,37
476,26	11676,53
476,37	11299,14
476,47	11407,61
476,58	11287,84
476,69	11091,23
476,80	11192,93
476,91	11615,51
477,02	11900,25
477,13	11841,50
477,23	11536,42
477,34	12105,90
477,45	12065,22
477,56	11807,60
477,67	11922,85
477,78	12194,03
477,89	12336,40
477,99	11791,78
478,10	12609,84
478,21	12383,86
478,32	12587,24
478,43	12184,99
478,54	13479,87
478,64	12813,22
478,75	12878,76
478,86	12594,02
478,97	12600,80
479,08	12544,30
479,18	12401,93
479,29	12478,77
479,40	12365,78
479,51	12212,11
479,62	12442,61
479,72	12535,26
479,83	12505,89
479,94	13231,29
480,05	13224,51
480,16	12923,95
480,26	13407,56
480,37	12722,83
480,48	13572,52
480,59	13332,98
480,70	13475,35
480,80	13100,22
480,91	13097,96
481,02	13104,74
481,13	13712,63
481,24	13818,85
481,34	13152,20
481,45	15163,44
481,56	13260,67
481,67	13674,22
481,77	13384,96
481,88	13694,56
481,99	14257,25
482,10	14130,70
482,20	16300,14
482,31	13841,44
482,42	14099,06
482,53	13683,26
482,63	15045,93
482,74	14722,78
482,85	14092,28
482,96	13784,95
483,06	14227,87
483,17	14593,97
483,28	14162,34
483,39	14279,85
483,49	14919,38
483,60	16096,75
483,71	14151,04
483,81	15125,03
483,92	14535,21
484,03	14682,10
484,14	14795,09
484,24	14727,30
484,35	14948,76
484,46	14867,41
484,57	14627,86
484,67	15222,20
484,78	15084,35
484,89	16539,68
484,99	15161,18
485,10	15197,34
485,21	15683,20
485,31	15475,30
485,42	15233,50
485,53	15188,30
485,63	15355,53
485,74	16618,77
485,85	17567,90
485,96	22638,95
486,06	15800,71
486,17	15922,75
486,28	15940,82
486,38	15301,29
486,49	16503,52
486,60	15696,76
486,70	15787,16
486,81	15976,98
486,92	15990,54
487,02	16028,96
487,13	15699,02
487,24	16132,91
487,34	15947,60
487,45	17075,26
487,56	16318,22
487,66	16239,12
487,77	16756,62
487,87	16456,06
487,98	16205,22
488,09	16745,32
488,19	16006,36
488,30	18413,08
488,41	16546,46
488,51	16433,47
488,62	16530,64
488,73	16539,68
488,83	17204,07
488,94	17303,50
489,04	18225,51
489,15	16984,86
489,26	16914,81
489,36	17868,46
489,47	17172,43
489,58	17138,53
489,68	17708,01
489,79	17188,25
489,89	17660,55
490,00	17513,66
490,11	17970,15
490,21	17940,77
490,32	17233,45
490,42	17868,46
490,53	17651,51
490,64	17425,53
490,74	17750,95
490,85	17617,62
490,95	18496,69
491,06	18404,04
491,16	17979,19
491,27	18270,71
491,38	17708,01
491,48	19124,92
491,59	19321,53
491,69	18539,63
491,80	17793,88
491,90	18912,50
492,01	21292,10
492,12	18853,74
492,22	18417,59
492,33	19050,35
492,43	18449,23
492,54	18404,04
492,64	18338,50
492,75	19070,68
492,86	18930,58
492,96	18573,52
493,07	18663,92
493,17	19102,32
493,28	19710,22
493,38	19294,41
493,49	19025,49
493,59	19380,28
493,70	19204,01
493,80	18964,47
493,91	18801,77
494,01	18670,70
494,12	19260,51
494,22	19918,12
494,33	20406,24
494,43	20345,23
494,54	20424,32
494,64	19486,49
494,75	19147,52
494,86	20245,80
494,96	19436,78
495,07	19750,89
495,17	20401,72
495,28	19771,23
495,38	19680,84
495,49	20026,59
495,59	20022,07
495,69	19825,47
495,80	20609,63
495,90	19818,69
496,01	19875,18
496,11	20261,61
496,22	20372,35
496,32	19748,63
496,43	20609,63
496,53	19942,98
496,64	20449,18
496,74	20419,80
496,85	20690,98
496,95	20738,44
497,06	20202,86
497,16	20548,61
497,27	20498,90
497,37	21228,82
497,48	20094,39
497,58	20349,75
497,68	20397,20
497,79	21127,13
497,89	20598,33
498,00	20955,38
498,10	20564,43
498,21	21255,94
498,31	20851,43
498,42	20559,91
498,52	21368,93
498,62	20727,14
498,73	21262,72
498,83	21393,79
498,94	20440,14
499,04	21879,65
499,15	21048,03
499,25	21109,05
499,35	21958,74
499,46	22519,18
499,56	22261,56
499,67	21637,85
499,77	21090,97
499,87	21165,55
499,98	21127,13
500,08	20991,54
500,19	21655,93
500,29	21646,89
500,39	21739,54
500,50	22058,18
500,60	21617,51
500,71	21468,36
500,81	21640,11
500,91	21518,08
501,02	21558,76
501,12	22060,44
501,22	21531,64
501,33	21949,71
501,43	22261,56
501,54	21522,60
501,64	21653,67
501,74	21872,87
501,85	22989,23
501,95	21301,13
502,05	22080,78
502,16	22035,58
502,26	23181,31
502,37	22503,36
502,47	22424,27
502,57	22268,34
502,68	22001,68
502,78	22132,75
502,88	22650,25
502,99	22505,62
503,09	22896,57
503,19	22058,18
503,30	21936,15
503,40	22112,41
503,50	22313,54
503,61	22548,56
503,71	22568,90
503,81	22252,52
503,92	22315,80
504,02	23154,19
504,12	24643,42
504,23	23077,36
504,33	22634,43
504,43	22713,53
504,54	23323,68
504,64	23127,08
504,74	24919,12
504,84	22849,12
504,95	22869,46
505,05	22792,62
505,15	24218,57
505,26	23183,57
505,36	23063,80
505,46	22808,44
505,56	23520,29
505,67	23508,99
505,77	23466,05
505,87	22760,98
505,98	23093,18
506,08	23045,72
506,18	23296,56
506,28	23443,45
506,39	23472,83
506,49	23253,63
506,59	23298,82
506,70	23264,92
506,80	23994,85
506,90	24930,42
507,00	23151,93
507,11	23472,83
507,21	24433,26
507,31	24279,59
507,41	23823,10
507,52	23651,36
507,62	23850,22
507,72	24641,16
507,82	24340,60
507,93	23667,17
508,03	24817,43
508,13	24105,58
508,23	24098,80
508,34	24424,22
508,44	23662,65
508,54	23800,50
508,64	24444,56
508,74	23940,61
508,85	23997,11
508,95	24259,25
509,05	23540,62
509,15	24507,83
509,26	24693,14
509,36	24144,00
509,46	25020,81
509,56	24419,70
509,66	24609,52
509,77	24376,76
509,87	24799,35
509,97	24614,04
510,07	25097,65
510,17	24593,70
510,28	26582,35
510,38	25454,70
510,48	24986,91
510,58	25393,68
510,68	25219,68
510,78	25228,72
510,89	25147,36
510,99	24345,12
511,09	25373,34
511,19	25305,55
511,29	24568,85
511,39	25676,16
511,50	25753,00
511,60	24817,43
511,70	25382,38
511,80	25459,22
511,90	25755,26
512,00	25576,73
512,11	25154,14
512,21	25793,67
512,31	25102,16
512,41	26243,38
512,51	25786,89
512,61	26925,85
512,71	25108,94
512,82	25753,00
512,92	24740,59
513,02	25540,57
513,12	25671,64
513,22	25689,72
513,32	26173,32
513,42	26268,24
513,53	26419,64
513,63	26137,17
513,73	26333,77
513,83	25644,52
513,93	26713,42
514,03	26406,09
514,13	26885,17
514,23	25773,33
514,33	26250,16
514,44	26119,09
514,54	26338,29
514,64	27183,47
514,74	26232,08
514,84	26360,89
514,94	26968,78
515,04	26668,23
515,14	26514,56
515,24	27047,88
515,34	26613,99
515,44	26171,06
515,55	26270,50
515,65	27296,46
515,75	26184,62
515,85	26751,84
515,95	27025,28
516,05	27237,70
516,15	27172,17
516,25	26412,86
516,35	26670,49
516,45	26537,16
516,55	26844,49
516,65	26943,92
516,75	28213,95
516,85	27045,62
516,95	27572,16
517,05	27581,20
517,16	26717,94
517,26	28584,56
517,36	26458,06
517,46	26948,44
517,56	27477,24
517,66	26937,14
517,76	27142,79
517,86	26717,94
517,96	27648,99
518,06	26458,06
518,16	27300,98
518,26	27816,22
518,36	26740,54
518,46	27163,13
518,56	27651,25
518,66	27637,69
518,76	27696,45
518,86	27820,74
518,96	27271,60
519,06	27621,87
519,16	27630,91
519,26	27427,53
519,36	27820,74
519,46	27820,74
519,56	28629,76
519,66	29151,78
519,76	27429,79
519,86	27725,82
519,96	27940,51
520,06	27712,27
520,16	29124,66
520,26	28175,53
520,36	27969,89
520,46	27551,82
520,56	27725,82
520,66	27823,00
520,76	28069,32
520,86	28125,81
520,96	28690,77
521,06	28168,75
521,16	27721,30
521,26	28496,43
521,35	28453,49
521,45	27773,28
521,55	28159,71
521,65	29061,38
521,75	28051,24
521,85	27838,82
521,95	28498,69
522,05	27945,03
522,15	28864,78
522,25	35919,96
522,35	29027,49
522,45	27377,81
522,55	29018,45
522,65	28494,17
522,75	28419,59
522,85	28437,67
522,94	28103,22
523,04	28964,21
523,14	28403,77
523,24	28130,33
523,34	28200,39
523,44	28489,65
523,54	28634,28
523,64	28582,30
523,74	29746,11
523,84	29149,52
523,94	28905,45
524,03	28326,94
524,13	29050,08
524,23	28980,03
524,33	28745,01
524,43	29181,15
524,53	28912,23
524,63	28713,37
524,73	29034,26
524,83	28681,73
524,92	29013,93
525,02	28622,98
525,12	29522,39
525,22	29061,38
525,32	28858,00
525,42	29800,35
525,52	29248,95
525,61	29402,62
525,71	28742,75
525,81	29705,43
525,91	29077,20
526,01	29246,69
526,11	29470,41
526,21	29554,03
526,30	29185,67
526,40	29314,48
526,50	29972,09
526,60	29820,68
526,70	29637,64
526,80	29888,48
526,89	29294,14
526,99	29115,62
527,09	29789,05
527,19	29438,77
527,29	29700,91
527,39	29300,92
527,48	30017,29
527,58	29698,65
527,68	29368,72
527,78	30274,91
527,88	30756,25
527,97	29366,46
528,07	29325,78
528,17	30105,42
528,27	30729,14
528,37	29777,75
528,46	29138,22
528,56	30787,89
528,66	30213,89
528,76	29696,39
528,86	30385,64
528,95	29463,63
529,05	30112,20
529,15	30003,73
529,25	30116,72
529,35	30338,19
529,44	30202,60
529,54	30668,12
529,64	29972,09
529,74	29804,87
529,83	29766,45
529,93	29470,41
530,03	30159,66
530,13	30089,60
530,22	30568,69
530,32	30740,43
530,42	30286,21
530,52	29549,51
530,61	30765,29
530,71	29549,51
530,81	30430,84
530,91	30351,74
531,00	30082,82
531,10	29660,24
531,20	30636,48
531,30	29972,09
531,39	30218,41
531,49	29933,68
531,59	31140,42
531,69	30358,52
531,78	29931,42
531,88	30424,06
531,98	30595,81
532,07	29752,89
532,17	30654,56
532,27	30699,76
532,37	30704,28
532,46	30668,12
532,56	31106,53
532,66	30170,96
532,75	30570,95
532,85	30354,00
532,95	30091,86
533,04	30367,56
533,14	30338,19
533,24	30711,06
533,34	30159,66
533,43	31068,11
533,53	29913,34
533,63	30641,00
533,72	29965,31
533,82	30421,80
533,92	30320,11
534,01	32451,12
534,11	32240,96
534,21	30713,32
534,30	30383,38
534,40	30589,03
534,50	30155,14
534,59	30270,39
534,69	30602,59
534,79	30928,00
534,88	30765,29
534,98	31056,81
535,08	29739,33
535,17	30866,98
535,27	30677,16
535,36	30356,26
535,46	31151,72
535,56	30496,37
535,65	30885,06
535,75	30866,98
535,85	30401,46
535,94	30421,80
536,04	30539,31
536,14	31013,87
536,23	31847,75
536,33	30670,38
536,42	30620,66
536,52	30591,29
536,62	30365,30
536,71	31029,69
536,81	30760,77
536,90	30656,82
537,00	31047,77
537,10	30180,00
537,19	30715,58
537,29	31361,89
537,38	31655,66
537,48	31364,15
537,58	31086,19
537,67	30683,94
537,77	31158,50
537,86	30760,77
537,96	31040,99
538,06	30959,64
538,15	30564,17
538,25	32213,84
538,34	32785,58
538,44	31861,31
538,53	31470,36
538,63	31759,62
538,73	31795,77
538,82	31011,61
538,92	31253,42
539,01	32211,58
539,11	30344,96
539,20	32462,42
539,30	31305,39
539,39	30830,83
539,49	32010,46
539,59	31167,54
539,68	32552,82
539,78	32559,60
539,87	31544,93
539,97	31822,89
540,06	31391,26
540,16	31113,31
540,25	31752,84
540,35	32087,29
540,44	31592,39
540,54	32057,91
540,63	31176,58
540,73	31337,03
540,82	31334,77
540,92	30925,74
541,01	32109,89
541,11	32283,90
541,20	31716,68
541,30	31434,20
541,39	31682,78
541,49	31377,71
541,58	32254,52
541,68	32155,09
541,77	31490,70
541,87	30717,84
541,96	31009,35
542,06	31976,56
542,15	32161,87
542,25	33764,08
542,34	31924,58
542,44	31038,73
542,53	31436,46
542,63	31730,24
542,72	31524,59
542,82	31276,01
542,91	31264,71
543,01	31474,88
543,10	32139,27
543,20	31391,26
543,29	31639,85
543,38	31285,05
543,48	31375,45
543,57	30903,14
543,67	31282,79
543,76	30837,61
543,86	31429,68
543,95	31488,44
544,05	32378,81
544,14	32875,97
544,23	31788,99
544,33	31174,32
544,42	31800,29
544,52	31508,78
544,61	31820,63
544,71	32860,15
544,80	32618,35
544,89	32514,40
544,99	31696,34
545,08	32378,81
545,18	31045,51
545,27	33203,65
545,36	33025,12
545,46	31678,26
545,55	31653,40
545,65	31741,54
545,74	31746,06
545,84	31043,25
545,93	31639,85
546,02	31777,70
546,12	31992,38
546,21	32109,89
546,30	32179,94
546,40	31653,40
546,49	31393,52
546,59	31782,22
546,68	31890,69
546,77	32134,75
546,87	32198,02
546,96	32202,54
547,05	32014,98
547,15	31578,83
547,24	31818,37
547,34	31373,19
547,43	31676,00
547,52	32717,78
547,62	32365,25
547,71	32116,67
547,80	32299,72
547,90	31994,64
547,99	33187,83
548,08	31926,84
548,18	31063,59
548,27	31635,33
548,36	31908,77
548,46	31761,88
548,55	31944,92
548,64	32204,80
548,74	31389,01
548,83	31865,83
548,92	33115,51
549,02	31185,62
549,11	33639,79
549,20	32268,08
549,30	31856,79
549,39	32082,77
549,48	32085,03
549,58	31208,22
549,67	32607,05
549,76	31827,41
549,85	31716,68
549,95	31870,35
550,04	32837,55
550,13	31859,05
550,23	32557,34
550,32	31820,63
550,41	31990,12
550,50	32353,95
550,60	33260,14
550,69	32618,35
550,78	31766,40
550,88	33043,20
550,97	32507,62
551,06	32356,21
551,15	31811,59
551,25	33156,19
551,34	31737,02
551,43	31931,36
551,52	32161,87
551,62	33054,50
551,71	33018,34
551,80	32765,24
551,89	32259,04
551,99	32137,01
552,08	32164,13
552,17	32035,32
552,26	32970,88
552,36	31895,21
552,45	32044,36
552,54	31725,72
552,63	32573,15
552,73	33614,94
552,82	33576,52
552,91	32543,78
553,00	33748,27
553,10	32256,78
553,19	33644,31
553,28	32254,52
553,37	32555,08
553,46	31967,52
553,56	33056,76
553,65	31779,96
553,74	32008,20
553,83	32460,16
553,92	32645,47
554,02	32701,96
554,11	32833,04
554,20	31874,87
554,29	33639,79
554,38	32656,77
554,48	32148,31
554,57	32127,97
554,66	32557,34
554,75	32903,09
554,84	32670,33
554,94	32552,82
555,03	32148,31
555,12	31669,22
555,21	32134,75
555,30	33913,23
555,39	31999,16
555,49	32277,12
555,58	32706,48
555,67	32349,43
555,76	33185,57
555,85	32046,62
555,94	31967,52
556,03	32466,94
556,13	32534,74
556,22	32591,23
556,31	32794,62
556,40	32385,59
556,49	33386,69
556,58	32503,10
556,67	32247,74
556,77	32213,84
556,86	33495,16
556,95	32950,55
557,04	33361,83
557,13	33411,55
557,22	33479,35
557,31	32491,80
557,40	32473,72
557,50	33520,02
557,59	32317,79
557,68	32480,50
557,77	33339,24
557,86	33151,67
557,95	32674,85
558,04	32496,32
558,13	32582,19
558,22	32401,41
558,31	32699,71
558,41	32326,83
558,50	33151,67
558,59	33289,52
558,68	33079,36
558,77	33375,39
558,86	32374,29
558,95	31944,92
559,04	33438,67
559,13	33339,24
559,22	32564,12
559,31	32381,07
559,40	32405,93
559,49	32979,92
559,59	32916,65
559,68	32656,77
559,77	33748,27
559,86	33603,64
559,95	32622,87
560,04	32674,85
560,13	32747,16
560,22	34179,89
560,31	33122,29
560,40	33133,59
560,49	32905,35
560,58	32444,34
560,67	32048,87
560,76	32735,86
560,85	31895,21
560,94	33886,11
561,03	32618,35
561,12	34681,57
561,21	34374,24
561,30	32387,85
561,39	32708,74
561,48	32686,15
561,57	31843,23
561,66	33056,76
561,75	33773,12
561,84	32595,75
561,93	32358,47
562,02	32604,79
562,11	32638,69
562,20	32290,68
562,29	32905,35
562,38	32338,13
562,47	33499,68
562,56	32616,09
562,65	32338,13
562,74	32663,55
562,83	34986,65
562,92	32930,21
563,01	33892,89
563,10	32530,22
563,19	33223,99
563,28	35038,63
563,37	33400,25
563,46	32790,10
563,55	32570,90
563,64	34740,33
563,73	32509,88
563,82	33217,21
563,91	33944,87
564,00	32846,59
564,09	32279,38
564,18	32855,63
564,27	32986,70
564,35	33099,69
564,44	32812,70
564,53	33411,55
564,62	32907,61
564,71	32896,31
564,80	33011,56
564,89	33131,33
564,98	51198,65
565,07	33056,76
565,16	32444,34
565,25	35935,78
565,34	32378,81
565,43	32672,59
565,51	32692,93
565,60	33522,28
565,69	32414,97
565,78	33886,11
565,87	32094,07
565,96	32001,42
566,05	33515,50
566,14	33375,39
566,23	32882,75
566,32	33856,74
566,40	33368,61
566,49	33895,15
566,58	32376,55
566,67	32936,99
566,76	32726,82
566,85	32842,07
566,94	32668,07
567,03	33040,94
567,11	32480,50
567,20	32839,81
567,29	33630,75
567,38	33120,03
567,47	31969,78
567,56	32729,08
567,65	32516,66
567,73	31926,84
567,82	32170,91
567,91	32711,00
568,00	33178,79
568,09	32469,20
568,18	32385,59
568,27	32695,19
568,35	32690,67
568,44	33144,89
568,53	32679,37
568,62	32471,46
568,71	32311,01
568,80	32482,76
568,88	33081,62
568,97	33590,08
569,06	32107,63
569,15	32259,04
569,24	32903,09
569,32	32898,57
569,41	32381,07
569,50	31847,75
569,59	31870,35
569,68	31953,96
569,76	33104,21
569,85	33047,72
569,94	33499,68
570,03	32498,58
570,12	32776,54
570,20	32979,92
570,29	32986,70
570,38	32297,46
570,47	32991,22
570,56	32240,96
570,64	32539,26
570,73	32306,50
570,82	33786,68
570,91	33219,47
570,99	32509,88
571,08	32442,08
571,17	32469,20
571,26	32796,88
571,34	31868,09
571,43	32683,89
571,52	32905,35
571,61	32064,69
571,69	32073,73
571,78	33034,16
571,87	33074,84
571,96	33147,15
572,04	32977,66
572,13	33106,47
572,22	32146,05
572,31	31850,01
572,39	32290,68
572,48	32579,93
572,57	32127,97
572,66	31942,66
572,74	31687,30
572,83	32686,15
572,92	32105,37
573,00	31949,44
573,09	32518,92
573,18	32783,32
573,27	33092,92
573,35	32365,25
573,44	32012,72
573,53	32170,91
573,61	32005,94
573,70	32751,68
573,79	32157,35
573,87	33807,02
573,96	31935,88
574,05	32462,42
574,14	32410,45
574,22	31838,71
574,31	33054,50
574,40	31757,36
574,48	31999,16
574,57	32351,69
574,66	32668,07
574,74	32351,69
574,83	33099,69
574,92	32645,47
575,00	31811,59
575,09	32873,71
575,18	31843,23
575,26	33567,48
575,35	31972,04
575,43	32227,40
575,52	32851,11
575,61	32668,07
575,69	32686,15
575,78	31590,13
575,87	33382,17
575,95	32428,53
576,04	31827,41
576,13	32259,04
576,21	31874,87
576,30	32609,31
576,38	32308,76
576,47	32385,59
576,56	32419,49
576,64	32033,06
576,73	32638,69
576,82	32331,35
576,90	32390,11
576,99	32308,76
577,07	31933,62
577,16	31610,47
577,25	32482,76
577,33	33289,52
577,42	32085,03
577,50	31330,25
577,59	32699,71
577,68	32498,58
577,76	32064,69
577,85	32256,78
577,93	32046,62
578,02	32378,81
578,10	31746,06
578,19	32179,94
578,28	31850,01
578,36	32351,69
578,45	32421,75
578,53	31461,32
578,62	32010,46
578,70	31741,54
578,79	31856,79
578,88	32173,17
578,96	31664,70
579,05	31847,75
579,13	33151,67
579,22	32019,50
579,30	31752,84
579,39	31956,22
579,47	33153,93
579,56	31879,39
579,64	34968,57
579,73	31718,94
579,82	32430,79
579,90	31653,40
579,99	31798,03
580,07	32148,31
580,16	32137,01
580,24	32491,80
580,33	30697,50
580,41	31911,03
580,50	31646,63
580,58	31734,76
580,67	31660,18
580,75	31737,02
580,84	31517,82
580,92	31036,47
581,01	32729,08
581,09	30934,78
581,18	31560,75
581,26	31361,89
581,35	30837,61
581,43	32286,16
581,52	31610,47
581,60	31935,88
581,69	31490,70
581,77	31947,18
581,86	31563,01
581,94	31953,96
582,02	32103,11
582,11	31506,52
582,19	32873,71
582,28	32824,00
582,36	32738,12
582,45	32708,74
582,53	31346,07
582,62	31316,69
582,70	31061,33
582,79	31594,65
582,87	30957,38
582,96	31906,51
583,04	32301,98
583,12	31725,72
583,21	31642,11
583,29	31499,74
583,38	31630,81
583,46	31251,16
583,55	31364,15
583,63	31034,21
583,71	31321,21
583,80	31422,90
583,88	31043,25
583,97	32688,41
584,05	31165,28
584,13	31669,22
584,22	31676,00
584,30	30577,73
584,39	31581,09
584,47	32028,54
584,55	31142,68
584,64	31761,88
584,72	31802,55
584,81	31239,86
584,89	30702,02
584,97	30756,25
585,06	30966,42
585,14	31748,32
585,23	31126,87
585,31	30514,45
585,39	31025,17
585,48	31181,10
585,56	30552,87
585,64	30853,43
585,73	30937,04
585,81	30898,62
585,90	31481,66
585,98	31106,53
586,06	31594,65
586,15	31870,35
586,23	30209,38
586,31	30991,28
586,40	30740,43
586,48	31468,10
586,56	30735,92
586,65	30627,44
586,73	30516,71
586,81	31273,75
586,90	31090,71
586,98	30457,96
587,06	30356,26
587,15	30934,78
587,23	31022,91
587,31	31009,35
587,40	30365,30
587,48	30476,03
587,56	31628,55
587,65	32412,71
587,73	31163,02
587,81	31156,24
587,90	32245,48
587,98	31002,57
588,06	30057,97
588,14	30713,32
588,23	30430,84
588,31	31712,16
588,39	31217,26
588,48	30602,59
588,56	30259,09
588,64	30876,02
588,72	30665,86
588,81	30446,66
588,89	31009,35
588,97	30584,51
589,06	31221,78
589,14	31228,56
589,22	30489,59
589,30	30891,84
589,39	30295,25
589,47	31450,02
589,55	31560,75
589,63	30528,01
589,72	30491,85
589,80	30265,87
589,88	30885,06
589,96	31517,82
590,05	30514,45
590,13	30643,26
590,21	31045,51
590,29	31639,85
590,38	30668,12
590,46	31305,39
590,54	29915,60
590,62	30159,66
590,71	30839,87
590,79	31092,97
590,87	29761,93
590,95	30123,50
591,03	30186,78
591,12	30627,44
591,20	30207,12
591,28	31321,21
591,36	30579,99
591,44	30123,50
591,53	30462,48
591,61	30263,61
591,69	30311,07
591,77	30943,82
591,85	30683,94
591,94	30193,56
592,02	29942,72
592,10	31226,30
592,18	30871,50
592,26	30408,24
592,34	29960,79
592,43	29924,64
592,51	29712,21
592,59	29574,36
592,67	30819,53
592,75	30105,42
592,84	29944,98
592,92	30302,03
593,00	30064,75
593,08	30333,67
593,16	29635,38
593,24	29838,76
593,32	30528,01
593,41	30080,56
593,49	29319,00
593,57	29691,87
593,65	29773,23
593,73	30354,00
593,81	30168,70
593,89	30485,07
593,98	30152,88
594,06	29346,12
594,14	30128,02
594,22	30012,77
594,30	29639,90
594,38	29829,72
594,46	30760,77
594,54	30595,81
594,62	30338,19
594,71	30134,80
594,79	29748,37
594,87	29843,28
594,95	29730,29
595,03	30896,36
595,11	29872,66
595,19	30638,74
595,27	29845,54
595,35	29323,52
595,43	29506,57
595,52	29330,30
595,60	29350,64
595,68	31138,16
595,76	29050,08
595,84	29963,05
595,92	29047,82
596,00	30695,24
596,08	30374,34
596,16	29606,00
596,24	29886,22
596,32	29341,60
596,40	29743,85
596,48	30062,49
596,56	29954,01
596,64	28894,16
596,73	30645,52
596,81	29253,47
596,89	29714,47
596,97	28957,43
597,05	31533,63
597,13	29126,92
597,21	29276,07
597,29	29334,82
597,37	30057,97
597,45	29264,77
597,53	29529,17
597,61	29592,44
597,69	29513,35
597,77	29090,76
597,85	29174,37
597,93	29212,79
598,01	29221,83
598,09	29689,61
598,17	29264,77
598,25	28982,29
598,33	28740,49
598,41	29316,74
598,49	28769,86
598,57	28787,94
598,65	29061,38
598,73	29291,89
598,81	28991,33
598,89	28928,05
598,97	28564,22
599,05	29608,26
599,13	29237,65
599,21	28747,27
599,29	29441,03
599,37	29341,60
599,45	29018,45
599,53	30089,60
599,61	28548,40
599,69	29402,62
599,77	28905,45
599,85	28785,68
599,93	28799,24
600,00	28234,29
600,08	29108,84
600,16	28458,01
600,24	28209,43
600,32	29798,09
600,40	29639,90
600,48	29619,56
600,56	29111,10
600,64	29280,59
600,72	28577,78
600,80	28668,17
600,88	28754,05
600,96	29298,66
601,04	28270,44
601,12	28302,08
601,19	27897,57
601,27	28326,94
601,35	28656,87
601,43	28462,53
601,51	28778,90
601,59	27920,17
601,67	28297,56
601,75	28227,51
601,83	28354,06
601,91	28089,66
601,98	27841,08
602,06	28505,47
602,14	28114,52
602,22	28887,38
602,30	28839,92
602,38	28396,99
602,46	27999,26
602,54	28959,69
602,61	28503,21
602,69	28245,58
602,77	27791,36
602,85	27893,05
602,93	27637,69
603,01	28241,07
603,09	28688,51
603,17	27583,46
603,24	28476,09
603,32	27468,20
603,40	27884,01
603,48	28390,21
603,56	27597,01
603,64	27149,57
603,71	27493,06
603,79	28037,68
603,87	28417,33
603,95	29413,92
604,03	27777,80
604,11	28403,77
604,18	28051,24
604,26	27303,24
604,34	27484,02
604,42	27960,85
604,50	27276,12
604,57	27425,27
604,65	28012,82
604,73	27685,15
604,81	27786,84
604,89	27104,37
604,96	27486,28
605,04	27890,79
605,12	27310,02
605,20	27782,32
605,28	28636,54
605,35	27443,35
605,43	28209,43
605,51	27000,42
605,59	27847,86
605,67	28808,28
605,74	27255,78
605,82	27752,94
605,90	27197,02
605,98	27639,95
606,05	27185,73
606,13	27343,91
606,21	27395,89
606,29	27255,78
606,36	27542,78
606,44	27063,70
606,52	27258,04
606,60	27217,36
606,67	27047,88
606,75	26410,60
606,83	26435,46
606,91	27644,47
606,98	26885,17
607,06	27072,73
607,14	26790,26
607,22	27800,40
607,29	26593,65
607,37	27032,06
607,45	27246,74
607,52	26966,52
607,60	27093,07
607,68	27111,15
607,76	26661,45
607,83	25823,05
607,91	27013,98
607,99	27032,06
608,06	27113,41
608,14	26250,16
608,22	26812,85
608,30	27411,71
608,37	26403,83
608,45	26261,46
608,53	26821,89
608,60	26720,20
608,68	25734,92
608,76	26216,26
608,83	26873,87
608,91	25888,58
608,99	27047,88
609,06	26317,95
609,14	26394,79
609,22	26390,27
609,29	25969,94
609,37	25649,04
609,45	26656,93
609,52	26155,24
609,60	25766,55
609,68	25850,17
609,75	26080,67
609,83	25203,86
609,91	26984,60
609,98	25800,45
610,06	25685,20
610,13	26410,60
610,21	25809,49
610,29	25463,74
610,36	25323,63
610,44	25330,41
610,52	25621,93
610,59	25407,24
610,67	25305,55
610,74	25603,85
610,82	25423,06
610,90	25782,37
610,97	25122,50
611,05	25766,55
611,13	25771,07
611,20	26186,88
611,28	24955,28
611,35	25838,87
611,43	24677,32
611,51	25454,70
611,58	25287,47
611,66	26119,09
611,73	24980,13
611,81	26021,91
611,88	25174,48
611,96	25590,29
612,04	25061,49
612,11	24654,72
612,19	25913,44
612,26	24489,75
612,34	24919,12
612,41	24862,62
612,49	24299,93
612,57	24080,72
612,64	24236,65
612,72	25404,98
612,79	25936,04
612,87	24071,68
612,94	23936,09
613,02	24842,28
613,09	24469,41
613,17	24541,73
613,24	24340,60
613,32	24510,09
613,40	23843,44
613,47	24381,28
613,55	23762,09
613,62	24401,62
613,70	24623,08
613,77	23809,54
613,85	24663,76
613,92	23640,06
614,00	23129,34
614,07	23524,81
614,15	23328,20
614,22	23267,18
614,30	23680,73
614,37	23337,24
614,45	23267,18
614,52	23303,34
614,60	23081,88
614,67	23680,73
614,75	22476,25
614,82	23567,74
614,90	22792,62
614,97	22501,10
615,05	23685,25
615,12	23312,38
615,20	23084,14
615,27	22668,33
615,34	22760,98
615,42	22336,14
615,49	22568,90
615,57	21970,04
615,64	22132,75
615,72	22076,26
615,79	22220,88
615,87	22261,56
615,94	23113,52
616,02	22094,33
616,09	22510,14
616,16	21868,35
616,24	21624,29
616,31	21594,91
616,39	23027,64
616,46	22044,62
616,54	21606,21
616,61	22742,90
616,68	21086,45
616,76	21179,10
616,83	21500,00
616,91	20724,88
616,98	20471,78
617,06	21667,23
617,13	20318,11
617,20	20440,14
617,28	20627,71
617,35	20331,67
617,43	21070,63
617,50	19981,40
617,57	20229,98
>>>>>End Processed Spectral Data<<<<<
