SpectraSuite Datei
++++++++++++++++++++++++++++++++++++
Datum: Thu Jan 01 07:41:30 CET 2004
Benutzer: H. Stützler
Dark-Spektrum vorhanden: Nein
Referenz-Spektrum vorhanden: Nein
Zahl der probierten Teilspektren: 1
Spektrometer: USB2+H04734
Integrationszeit (usec): 10000000 (USB2+H04734)
Spektren Durchschnitt berechnet: 1 (USB2+H04734)
Boxcar Glättung: 0 (USB2+H04734)
Dunkelstromkorrektur: Nein (USB2+H04734)
Puls/Lampe aktiviert: Nein (USB2+H04734)
Correct for Detector Non-linearity: Nein (USB2+H04734)
Streulichtkorrektur: Nein (USB2+H04734)
Anzahl Pixel in verarbeitetem Spektrum: 2048
>>>>>Begin Processed Spectral Data<<<<<
418,45	1294,88
418,57	1294,88
418,69	1294,88
418,80	1236,13
418,92	1249,68
419,04	3387,48
419,16	2099,38
419,28	2033,84
419,40	1966,05
419,52	2128,76
419,64	1932,15
419,75	1927,63
419,87	1990,91
419,99	1929,89
420,11	1927,63
420,23	2047,40
420,35	2352,48
420,47	2223,67
420,58	2031,58
420,70	2282,43
420,82	2194,29
420,94	2427,05
421,06	2854,16
421,18	2422,54
421,29	2336,66
421,41	2038,36
421,53	2300,50
421,65	2729,87
421,77	2628,18
421,89	2311,80
422,00	2969,41
422,12	2323,10
422,24	2194,29
422,36	2865,46
422,48	2820,26
422,59	2395,42
422,71	2686,94
422,83	2173,95
422,95	2228,19
423,07	2479,03
423,18	3032,69
423,30	2747,95
423,42	2237,23
423,54	2338,92
423,66	2244,01
423,77	2424,80
423,89	2309,54
424,01	2110,68
424,13	2072,26
424,25	2079,04
424,36	2472,25
424,48	2345,70
424,60	2286,95
424,72	2899,36
424,84	2187,51
424,95	2759,25
425,07	2458,69
425,19	2406,72
425,31	2512,93
425,42	2076,78
425,54	2582,98
425,66	2474,51
425,78	2153,62
425,89	2372,82
426,01	2201,07
426,13	2347,96
426,25	2874,50
426,36	2284,69
426,48	2521,97
426,60	2596,54
426,72	2327,62
426,83	2723,09
426,95	2594,28
427,07	2384,12
427,19	3202,18
427,30	2359,26
427,42	1997,69
427,54	2085,82
427,66	2334,40
427,77	2223,67
427,89	2424,80
428,01	2549,09
428,12	2589,76
428,24	2031,58
428,36	2101,64
428,48	2079,04
428,59	2092,60
428,71	2386,38
428,83	2033,84
428,94	2160,40
429,06	2223,67
429,18	2582,98
429,30	2264,35
429,41	2169,43
429,53	2682,42
429,65	2682,42
429,76	2460,95
429,88	2108,42
430,00	2512,93
430,11	2899,36
430,23	2259,83
430,35	3114,04
430,47	2257,57
430,58	2092,60
430,70	2707,27
430,82	2490,33
430,93	3868,82
431,05	2390,90
431,17	2341,18
431,28	2700,49
431,40	2142,32
431,52	3086,92
431,63	2024,81
431,75	2029,33
431,87	2282,43
431,98	2700,49
432,10	2393,16
432,22	2314,06
432,33	2849,64
432,45	2271,13
432,56	2429,31
432,68	2632,70
432,80	2192,03
432,91	2725,35
433,03	2442,87
433,15	2851,90
433,26	2411,24
433,38	2334,40
433,50	1880,18
433,61	2752,47
433,73	2917,44
433,84	2234,97
433,96	2142,32
434,08	2347,96
434,19	2262,09
434,31	2293,72
434,43	2393,16
434,54	2311,80
434,66	2063,22
434,77	1957,01
434,89	2666,60
435,01	2549,09
435,12	2146,84
435,24	2286,95
435,35	2164,91
435,47	3172,80
435,59	2440,61
435,70	2182,99
435,82	2438,35
435,93	2815,75
436,05	2474,51
436,17	2357,00
436,28	2551,35
436,40	2551,35
436,51	2101,64
436,63	2386,38
436,74	2799,93
436,86	2989,75
436,98	4302,71
437,09	2259,83
437,21	2664,34
437,32	2162,66
437,44	2601,06
437,55	2225,93
437,67	5500,42
437,79	3468,84
437,90	2503,89
438,02	2182,99
438,13	13093,44
438,25	3118,56
438,36	2675,64
438,48	2535,53
438,59	2799,93
438,71	2390,90
438,83	2178,47
438,94	2110,68
439,06	2838,34
439,17	2815,75
439,29	2192,03
439,40	2433,83
439,52	2250,79
439,63	2582,98
439,75	2112,94
439,86	2054,18
439,98	2350,22
440,09	2738,91
440,21	2264,35
440,32	2221,41
440,44	2004,47
440,55	2341,18
440,67	2210,11
440,78	2831,56
440,90	2092,60
441,01	2196,55
441,13	2128,76
441,24	2467,73
441,36	2949,08
441,47	2223,67
441,59	2700,49
441,70	2036,10
441,82	2693,71
441,93	2537,79
442,05	2015,77
442,16	2180,73
442,28	2015,77
442,39	2275,65
442,51	2677,90
442,62	2277,91
442,74	2693,71
442,85	2295,98
442,97	3172,80
443,08	2668,86
443,20	2510,67
443,31	2418,02
443,43	2182,99
443,54	2460,95
443,66	2074,52
443,77	2072,26
443,88	1970,57
444,00	2422,54
444,11	2625,92
444,23	2885,80
444,34	2149,10
444,46	2092,60
444,57	2842,86
444,69	2797,67
444,80	2521,97
444,91	3453,02
445,03	2020,29
445,14	2720,83
445,26	2027,07
445,37	2029,33
445,49	2404,46
445,60	2804,45
445,71	3102,74
445,83	2350,22
445,94	2092,60
446,06	2747,95
446,17	2074,52
446,29	1972,83
446,40	2368,30
446,51	2745,69
446,63	2397,68
446,74	2119,72
446,86	2169,43
446,97	2781,85
447,08	2149,10
447,20	2264,35
447,31	2085,82
447,43	2327,62
447,54	2311,80
447,65	2540,05
447,77	2042,88
447,88	2205,59
448,00	2379,60
448,11	1947,97
448,22	2167,17
448,34	2427,05
448,45	2011,25
448,56	2214,63
448,68	2429,31
448,79	2720,83
448,90	2612,36
449,02	2201,07
449,13	2203,33
449,25	2723,09
449,36	2264,35
449,47	2271,13
449,59	2935,52
449,70	2406,72
449,81	2153,62
449,93	2221,41
450,04	2151,36
450,15	2266,61
450,27	2239,49
450,38	2558,12
450,49	2212,37
450,61	2994,27
450,72	2248,53
450,83	2562,64
450,95	2212,37
451,06	2623,66
451,17	3095,96
451,29	2594,28
451,40	2137,80
451,51	1957,01
451,63	2038,36
451,74	2745,69
451,85	2207,85
451,97	2644,00
452,08	2402,20
452,19	2081,30
452,31	2815,75
452,42	2295,98
452,53	3077,89
452,65	2775,07
452,76	1979,61
452,87	2008,99
452,98	2099,38
453,10	2302,76
453,21	2020,29
453,32	2146,84
453,44	2051,92
453,55	1934,41
453,66	3434,94
453,77	2521,97
453,89	2587,50
454,00	3007,83
454,11	2445,13
454,23	2375,08
454,34	2314,06
454,45	1968,31
454,56	2492,59
454,68	3197,66
454,79	2320,84
454,90	2305,02
455,01	2027,07
455,13	2031,58
455,24	3007,83
455,35	2178,47
455,46	1911,81
455,58	2006,73
455,69	2924,22
455,80	2510,67
455,91	2015,77
456,03	2336,66
456,14	2680,16
456,25	2045,14
456,36	2060,96
456,48	2298,24
456,59	2827,04
456,70	2124,24
456,81	2752,47
456,92	3091,44
457,04	2612,36
457,15	3340,03
457,26	2033,84
457,37	2167,17
457,49	2131,02
457,60	1993,17
457,71	2291,47
457,82	2560,38
457,93	2309,54
458,05	2725,35
458,16	2020,29
458,27	2237,23
458,38	2404,46
458,49	2546,83
458,61	2214,63
458,72	2381,86
458,83	2207,85
458,94	2549,09
459,05	2454,17
459,17	4298,19
459,28	2230,45
459,39	2291,47
459,50	1954,75
459,61	2664,34
459,72	1918,59
459,84	2070,00
459,95	2295,98
460,06	4185,20
460,17	2128,76
460,28	2140,06
460,39	2214,63
460,51	2460,95
460,62	2248,53
460,73	2289,21
460,84	1868,88
460,95	2980,71
461,06	3075,63
461,18	2795,41
461,29	2759,25
461,40	2406,72
461,51	2445,13
461,62	3500,47
461,73	2228,19
461,84	2517,45
461,96	2481,29
462,07	2589,76
462,18	2146,84
462,29	2314,06
462,40	2734,39
462,51	2277,91
462,62	2863,20
462,73	2992,01
462,85	2582,98
462,96	2614,62
463,07	2747,95
463,18	3349,06
463,29	2546,83
463,40	2255,31
463,51	2063,22
463,62	1999,95
463,73	2612,36
463,85	2085,82
463,96	2291,47
464,07	2329,88
464,18	2212,37
464,29	2094,86
464,40	3001,05
464,51	2418,02
464,62	2257,57
464,73	1984,13
464,84	2558,12
464,95	2280,17
465,06	2282,43
465,18	1902,77
465,29	2413,50
465,40	2176,21
465,51	2253,05
465,62	2641,74
465,73	2266,61
465,84	2404,46
465,95	2429,31
466,06	2126,50
466,17	2307,28
466,28	2216,89
466,39	2657,56
466,50	1932,15
466,61	1767,19
466,72	2456,43
466,83	1963,79
466,95	2031,58
467,06	1877,92
467,17	2178,47
467,28	2065,48
467,39	2219,15
467,50	2492,59
467,61	1909,55
467,72	1993,17
467,83	2031,58
467,94	2309,54
468,05	1900,52
468,16	2415,76
468,27	2375,08
468,38	1986,39
468,49	2723,09
468,60	2076,78
468,71	2781,85
468,82	2668,86
468,93	2695,97
469,04	3019,13
469,15	2221,41
469,26	2108,42
469,37	2244,01
469,48	2820,26
469,59	2379,60
469,70	1977,35
469,81	2284,69
469,92	1898,26
470,03	2562,64
470,14	1954,75
470,25	2603,32
470,36	2354,74
470,47	1907,29
470,58	1909,55
470,69	2573,94
470,80	2569,42
470,91	2054,18
471,02	2189,77
471,13	2357,00
471,24	2388,64
471,35	2194,29
471,46	2863,20
471,56	2601,06
471,67	2750,21
471,78	2829,30
471,89	1859,84
472,00	1979,61
472,11	2571,68
472,22	2630,44
472,33	2225,93
472,44	2370,56
472,55	2164,91
472,66	2284,69
472,77	2212,37
472,88	3297,09
472,99	2727,61
473,10	1936,67
473,21	2253,05
473,32	2203,33
473,42	1875,66
473,53	2022,55
473,64	2413,50
473,75	2469,99
473,86	2230,45
473,97	2397,68
474,08	2384,12
474,19	2759,25
474,30	3186,36
474,41	2440,61
474,52	2133,28
474,62	2341,18
474,73	2029,33
474,84	3116,30
474,95	2474,51
475,06	2616,88
475,17	2008,99
475,28	1868,88
475,39	2225,93
475,50	1923,11
475,60	1968,31
475,71	2040,62
475,82	2641,74
475,93	2031,58
476,04	2829,30
476,15	2201,07
476,26	2506,15
476,37	2049,66
476,47	2135,54
476,58	2103,90
476,69	1794,30
476,80	1810,12
476,91	2223,67
477,02	2323,10
477,13	2300,50
477,23	1984,13
477,34	2307,28
477,45	2413,50
477,56	2144,58
477,67	2124,24
477,78	2271,13
477,89	2237,23
477,99	2146,84
478,10	2528,75
478,21	2451,91
478,32	2375,08
478,43	2185,25
478,54	3116,30
478,64	2372,82
478,75	2266,61
478,86	2081,30
478,97	2336,66
479,08	2232,71
479,18	1984,13
479,29	2049,66
479,40	1889,22
479,51	1844,02
479,62	2040,62
479,72	2151,36
479,83	1954,75
479,94	2399,94
480,05	2526,49
480,16	2024,81
480,26	2343,44
480,37	1954,75
480,48	2510,67
480,59	2189,77
480,70	2248,53
480,80	2185,25
480,91	1988,65
481,02	1898,26
481,13	2386,38
481,24	2286,95
481,34	1891,48
481,45	3166,02
481,56	2144,58
481,67	2291,47
481,77	2110,68
481,88	2079,04
481,99	2686,94
482,10	2431,57
482,20	4417,96
482,31	2167,17
482,42	2413,50
482,53	2051,92
482,63	2908,40
482,74	2490,33
482,85	2033,84
482,96	2015,77
483,06	1882,44
483,17	2555,86
483,28	2006,73
483,39	2192,03
483,49	2573,94
483,60	3310,65
483,71	2063,22
483,81	2603,32
483,92	2158,14
484,03	2212,37
484,14	2067,74
484,24	1929,89
484,35	2239,49
484,46	2295,98
484,57	2092,60
484,67	2397,68
484,78	1995,43
484,89	3265,45
484,99	2126,50
485,10	2262,09
485,21	2436,09
485,31	2411,24
485,42	2325,36
485,53	2060,96
485,63	2160,40
485,74	2919,70
485,85	3586,35
485,96	7889,06
486,06	2379,60
486,17	2205,59
486,28	2366,04
486,38	1934,41
486,49	2549,09
486,60	1968,31
486,70	1954,75
486,81	2194,29
486,92	1975,09
487,02	1979,61
487,13	1767,19
487,24	2108,42
487,34	1975,09
487,45	3062,07
487,56	2239,49
487,66	1972,83
487,77	2359,26
487,87	2065,48
487,98	1816,90
488,09	2176,21
488,19	1798,82
488,30	3294,83
488,41	2060,96
488,51	1787,52
488,62	1995,43
488,73	2024,81
488,83	2225,93
488,94	2381,86
489,04	2992,01
489,15	2045,14
489,26	1923,11
489,36	2314,06
489,47	2164,91
489,58	1954,75
489,68	2370,56
489,79	1981,87
489,89	2244,01
490,00	2040,62
490,11	2350,22
490,21	2357,00
490,32	1884,70
490,42	2135,54
490,53	2311,80
490,64	1918,59
490,74	1970,57
490,85	1934,41
490,95	2413,50
491,06	2323,10
491,16	1981,87
491,27	2404,46
491,38	2058,70
491,48	3179,58
491,59	2946,82
491,69	2372,82
491,80	1934,41
491,90	2903,88
492,01	2002,21
492,12	2512,93
492,22	2241,75
492,33	2727,61
492,43	2318,58
492,54	1905,03
492,64	2022,55
492,75	2476,77
492,86	2293,72
492,96	2149,10
493,07	2002,21
493,17	2357,00
493,28	2282,43
493,38	2239,49
493,49	2343,44
493,59	2431,57
493,70	2298,24
493,80	1993,17
493,91	1893,74
494,01	2027,07
494,12	2042,88
494,22	2648,52
494,33	2942,30
494,43	2827,04
494,54	3023,65
494,64	2397,68
494,75	2002,21
494,86	2677,90
494,96	1979,61
495,07	2155,88
495,17	2824,78
495,28	2112,94
495,38	2024,81
495,49	2210,11
495,59	2368,30
495,69	2185,25
495,80	2854,16
495,90	2158,14
496,01	1947,97
496,11	2314,06
496,22	2171,69
496,32	1975,09
496,43	2580,72
496,53	2085,82
496,64	2162,66
496,74	2327,62
496,85	2510,67
496,95	2280,17
497,06	2049,66
497,16	2445,13
497,27	2185,25
497,37	2732,13
497,48	1979,61
497,58	1957,01
497,68	2070,00
497,79	2619,14
497,89	2070,00
498,00	2185,25
498,10	1816,90
498,21	2612,36
498,31	2133,28
498,42	1975,09
498,52	2675,64
498,62	2264,35
498,73	2241,75
498,83	2375,08
498,94	2106,16
499,04	2664,34
499,15	2058,70
499,25	1950,23
499,35	2431,57
499,46	2964,89
499,56	3281,27
499,67	2433,83
499,77	1905,03
499,87	1952,49
499,98	1986,39
500,08	1821,42
500,19	2060,96
500,29	2234,97
500,39	2375,08
500,50	2573,94
500,60	2205,59
500,71	2246,27
500,81	2291,47
500,91	1970,57
501,02	2144,58
501,12	2377,34
501,22	1970,57
501,33	2228,19
501,43	2456,43
501,54	1914,07
501,64	2031,58
501,74	2033,84
501,85	2831,56
501,95	2002,21
502,05	2022,55
502,16	2131,02
502,26	2919,70
502,37	2402,20
502,47	2352,48
502,57	2246,27
502,68	2033,84
502,78	1909,55
502,88	2603,32
502,99	2198,81
503,09	2562,64
503,19	1977,35
503,30	1909,55
503,40	2033,84
503,50	1997,69
503,61	2106,16
503,71	2151,36
503,81	2079,04
503,92	2232,71
504,02	2612,36
504,12	3733,24
504,23	2786,37
504,33	2201,07
504,43	2144,58
504,54	2571,68
504,64	2549,09
504,74	3767,13
504,84	2318,58
504,95	2133,28
505,05	1783,00
505,15	2693,71
505,26	1950,23
505,36	2065,48
505,46	2067,74
505,56	2451,91
505,67	2402,20
505,77	2379,60
505,87	2020,29
505,98	1923,11
506,08	2108,42
506,18	2246,27
506,28	2268,87
506,39	2214,63
506,49	2124,24
506,59	2051,92
506,70	1981,87
506,80	2289,21
506,90	3120,82
507,00	1810,12
507,11	2253,05
507,21	2592,02
507,31	2436,09
507,41	2244,01
507,52	2097,12
507,62	2214,63
507,72	2937,78
507,82	2662,08
507,93	2158,14
508,03	2605,58
508,13	2244,01
508,23	2221,41
508,34	2368,30
508,44	1970,57
508,54	1997,69
508,64	2255,31
508,74	1866,62
508,85	2090,34
508,95	2225,93
509,05	1914,07
509,15	2223,67
509,26	2343,44
509,36	2018,03
509,46	2280,17
509,56	1970,57
509,66	2162,66
509,77	2013,51
509,87	2117,46
509,97	2232,71
510,07	2241,75
510,17	1905,03
510,28	3453,02
510,38	2634,96
510,48	2192,03
510,58	2460,95
510,68	2293,72
510,78	2390,90
510,89	2201,07
510,99	1961,53
511,09	2716,31
511,19	2637,22
511,29	2072,26
511,39	2779,59
511,50	3034,95
511,60	2262,09
511,70	2815,75
511,80	2998,79
511,90	3168,28
512,00	2743,43
512,11	2641,74
512,21	3041,73
512,31	2829,30
512,41	4110,63
512,51	3701,60
512,61	4680,10
512,71	3380,70
512,82	3378,44
512,92	2716,31
513,02	3231,55
513,12	2614,62
513,22	2363,78
513,32	2736,65
513,42	2420,28
513,53	2716,31
513,63	2490,33
513,73	2603,32
513,83	2036,10
513,93	2485,81
514,03	2567,16
514,13	3062,07
514,23	2072,26
514,33	2178,47
514,44	2214,63
514,54	2158,14
514,64	3109,52
514,74	2189,77
514,84	2201,07
514,94	2533,27
515,04	2546,83
515,14	2384,12
515,24	2357,00
515,34	2368,30
515,44	1880,18
515,55	1857,58
515,65	2497,11
515,75	2103,90
515,85	2228,19
515,95	2567,16
516,05	2946,82
516,15	2531,01
516,25	2045,14
516,35	2067,74
516,45	2119,72
516,55	2088,08
516,65	2223,67
516,75	3290,31
516,85	2521,97
516,95	2605,58
517,05	2779,59
517,16	2112,94
517,26	3511,77
517,36	2153,62
517,46	1993,17
517,56	2309,54
517,66	2363,78
517,76	2158,14
517,86	2178,47
517,96	2501,63
518,06	2074,52
518,16	2171,69
518,26	2501,63
518,36	2137,80
518,46	2228,19
518,56	2614,62
518,66	2752,47
518,76	2377,34
518,86	2768,29
518,96	2140,06
519,06	2097,12
519,16	2535,53
519,26	2449,65
519,36	2589,76
519,46	2456,43
519,56	2955,85
519,66	3303,87
519,76	2124,24
519,86	2234,97
519,96	2474,51
520,06	2334,40
520,16	3211,22
520,26	2637,22
520,36	2246,27
520,46	2253,05
520,56	2246,27
520,66	2359,26
520,76	2248,53
520,86	2314,06
520,96	2879,02
521,06	2562,64
521,16	2212,37
521,26	2366,04
521,35	2718,57
521,45	2158,14
521,55	2393,16
521,65	2700,49
521,75	2372,82
521,85	2090,34
521,95	2560,38
522,05	2153,62
522,15	2786,37
522,25	8693,56
522,35	3023,65
522,45	2510,67
522,55	3030,43
522,65	2718,57
522,75	2540,05
522,85	2720,83
522,94	2824,78
523,04	3276,75
523,14	3258,67
523,24	3240,59
523,34	3694,82
523,44	4562,59
523,54	5043,94
523,64	5807,76
523,74	7443,87
523,84	7235,97
523,94	7150,09
524,03	6393,05
524,13	6115,09
524,23	5362,57
524,33	4011,19
524,43	3396,52
524,53	3012,35
524,63	2481,29
524,73	2332,14
524,83	2024,81
524,92	2239,49
525,02	1907,29
525,12	2510,67
525,22	2248,53
525,32	1943,45
525,42	2621,40
525,52	2173,95
525,61	2393,16
525,71	1857,58
525,81	2332,14
525,91	1963,79
526,01	2257,57
526,11	2244,01
526,21	2499,37
526,30	2338,92
526,40	2051,92
526,50	2282,43
526,60	2549,09
526,70	2390,90
526,80	2363,78
526,89	2097,12
526,99	1972,83
527,09	2210,11
527,19	2311,80
527,29	2492,59
527,39	2225,93
527,48	2338,92
527,58	2357,00
527,68	1923,11
527,78	2698,23
527,88	3208,96
527,97	2106,16
528,07	1997,69
528,17	2623,66
528,27	2641,74
528,37	2210,11
528,46	1947,97
528,56	2937,78
528,66	2451,91
528,76	1875,66
528,86	2628,18
528,95	1963,79
529,05	2284,69
529,15	2248,53
529,25	2521,97
529,35	2698,23
529,44	2492,59
529,54	2833,82
529,64	2433,83
529,74	2146,84
529,83	1916,33
529,93	2049,66
530,03	2291,47
530,13	2210,11
530,22	2691,45
530,32	2639,48
530,42	2555,86
530,52	1792,04
530,61	2553,61
530,71	1945,71
530,81	2582,98
530,91	2083,56
531,00	2065,48
531,10	2155,88
531,20	2427,05
531,30	2185,25
531,39	2323,10
531,49	2338,92
531,59	3997,64
531,69	3541,15
531,78	3086,92
531,88	3509,51
531,98	3636,06
532,07	3073,37
532,17	3251,89
532,27	3376,18
532,37	2576,20
532,46	2494,85
532,56	2336,66
532,66	1911,81
532,75	2212,37
532,85	2248,53
532,95	2203,33
533,04	2133,28
533,14	2386,38
533,24	2512,93
533,34	2151,36
533,43	2469,99
533,53	1794,30
533,63	2379,60
533,72	2178,47
533,82	2049,66
533,92	1923,11
534,01	3552,45
534,11	3787,47
534,21	2474,51
534,30	2067,74
534,40	2142,32
534,50	1834,98
534,59	2042,88
534,69	1963,79
534,79	2219,15
534,88	2847,38
534,98	2632,70
535,08	1841,76
535,17	2386,38
535,27	2097,12
535,36	1975,09
535,46	2291,47
535,56	1902,77
535,65	2440,61
535,75	2542,31
535,85	2259,83
535,94	1972,83
536,04	2198,81
536,14	2521,97
536,23	2799,93
536,33	2031,58
536,42	2314,06
536,52	2090,34
536,62	1841,76
536,71	2318,58
536,81	2176,21
536,90	2180,73
537,00	2266,61
537,10	2036,10
537,19	2205,59
537,29	2388,64
537,38	2662,08
537,48	2345,70
537,58	2329,88
537,67	2085,82
537,77	2164,91
537,86	2088,08
537,96	2745,69
538,06	2137,80
538,15	2038,36
538,25	3211,22
538,34	3425,90
538,44	3231,55
538,53	2533,27
538,63	2901,62
538,73	2691,45
538,82	2420,28
538,92	2479,03
539,01	3638,32
539,11	2580,72
539,20	4275,59
539,30	3902,72
539,39	4230,40
539,49	5674,43
539,59	7100,38
539,68	10311,59
539,78	12675,37
539,87	14051,61
539,97	15687,72
540,06	15972,46
540,16	14892,26
540,25	14042,57
540,35	12605,32
540,44	9846,07
540,54	8119,56
540,63	5733,18
540,73	4655,24
540,82	4436,04
540,92	3875,60
541,01	4350,17
541,11	4406,66
541,20	3717,42
541,30	3830,41
541,39	3871,08
541,49	3642,84
541,58	4386,33
541,68	4219,10
541,77	3568,27
541,87	3059,81
541,96	3034,95
542,06	3807,81
542,15	4124,19
542,25	4153,56
542,34	3710,64
542,44	3125,34
542,53	3193,14
542,63	3482,39
542,72	3100,48
542,82	3030,43
542,91	3265,45
543,01	3012,35
543,10	3556,97
543,20	3172,80
543,29	3457,54
543,38	3030,43
543,48	3217,99
543,57	3111,78
543,67	3019,13
543,76	3134,38
543,86	3091,44
543,95	3441,72
544,05	4047,35
544,14	4309,49
544,23	3254,15
544,33	3184,10
544,42	3554,71
544,52	3057,55
544,61	3342,28
544,71	3981,82
544,80	4144,52
544,89	3920,80
544,99	3376,18
545,08	3642,84
545,18	2860,94
545,27	4483,50
545,36	3929,84
545,46	3489,17
545,55	3206,70
545,65	3288,05
545,74	3100,48
545,84	2897,10
545,93	3267,71
546,02	3066,59
546,12	3667,70
546,21	3577,31
546,30	3376,18
546,40	3364,88
546,49	3001,05
546,59	3405,56
546,68	3014,61
546,77	3703,86
546,87	3301,61
546,96	3595,39
547,05	3441,72
547,15	2908,40
547,24	3177,32
547,34	3039,47
547,43	3308,39
547,52	3658,66
547,62	3387,48
547,71	3462,06
547,80	3514,03
547,90	3242,85
547,99	4031,53
548,08	3367,14
548,18	2806,71
548,27	3037,21
548,36	2994,27
548,46	3159,24
548,55	3037,21
548,64	3425,90
548,74	3073,37
548,83	3389,74
548,92	4219,10
549,02	3077,89
549,11	4562,59
549,20	3608,94
549,30	3211,22
549,39	3335,51
549,48	3455,28
549,58	3012,35
549,67	3532,11
549,76	3337,77
549,85	2992,01
549,95	3281,27
550,04	3627,02
550,13	3041,73
550,23	3749,05
550,32	3265,45
550,41	3217,99
550,50	3597,65
550,60	4210,06
550,69	3491,43
550,78	3265,45
550,88	4121,93
550,97	4051,87
551,06	3746,79
551,15	3927,58
551,25	4836,03
551,34	3947,92
551,43	4447,34
551,52	5190,82
551,62	6257,46
551,71	7371,56
551,80	9046,09
551,89	11030,22
551,99	14517,13
552,08	19468,41
552,17	25759,77
552,26	32405,93
552,36	36401,30
552,45	39115,36
552,54	39614,78
552,63	38627,23
552,73	35689,46
552,82	30365,30
552,91	23045,72
553,00	18722,67
553,10	13561,23
553,19	11997,42
553,28	9916,12
553,37	10546,62
553,46	9491,28
553,56	10316,11
553,65	9538,73
553,74	9299,19
553,83	9319,53
553,92	8743,27
554,02	8065,32
554,11	7348,96
554,20	6343,34
554,29	6759,14
554,38	5389,69
554,48	5005,52
554,57	4472,20
554,66	4413,44
554,75	4630,39
554,84	4469,94
554,94	4334,35
555,03	3807,81
555,12	3491,43
555,21	3552,45
555,30	4899,31
555,39	3547,93
555,49	3547,93
555,58	3728,72
555,67	3803,29
555,76	4058,65
555,85	3204,44
555,94	3168,28
556,03	3308,39
556,13	3439,46
556,22	3326,47
556,31	3367,14
556,40	2874,50
556,49	3758,09
556,58	3290,31
556,67	3208,96
556,77	3001,05
556,86	3925,32
556,95	3416,86
557,04	4047,35
557,13	4108,37
557,22	3755,83
557,31	3414,60
557,40	3175,06
557,50	3828,15
557,59	3062,07
557,68	3084,66
557,77	3803,29
557,86	3378,44
557,95	3428,16
558,04	3360,36
558,13	3405,56
558,22	3586,35
558,31	3380,70
558,41	3077,89
558,50	3740,01
558,59	3821,37
558,68	3961,48
558,77	3812,33
558,86	3021,39
558,95	2969,41
559,04	3351,32
559,13	3816,85
559,22	3032,69
559,31	3217,99
559,40	3037,21
559,49	3050,77
559,59	3545,67
559,68	2775,07
559,77	3848,49
559,86	4108,37
559,95	3220,25
560,04	3043,99
560,13	3272,23
560,22	4237,18
560,31	3303,87
560,40	3240,59
560,49	2768,29
560,58	2910,66
560,67	2827,04
560,76	2808,97
560,85	2634,96
560,94	3663,18
561,03	2824,78
561,12	4912,87
561,21	4404,40
561,30	3145,68
561,39	3053,03
561,48	3147,94
561,57	2763,77
561,66	3392,00
561,75	4090,29
561,84	3043,99
561,93	2980,71
562,02	2937,78
562,11	2885,80
562,20	2892,58
562,29	3095,96
562,38	2657,56
562,47	3577,31
562,56	3188,62
562,65	2910,66
562,74	3062,07
562,83	4639,43
562,92	3364,88
563,01	3798,77
563,10	2766,03
563,19	3028,17
563,28	4867,67
563,37	3730,98
563,46	2804,45
563,55	2987,49
563,64	4485,76
563,73	2802,19
563,82	3423,64
563,91	4017,97
564,00	3143,42
564,09	2680,16
564,18	3321,95
564,27	2662,08
564,35	3249,63
564,44	3107,26
564,53	3597,65
564,62	3491,43
564,71	3362,62
564,80	3330,99
564,89	3238,33
564,98	7220,15
565,07	3416,86
565,16	2928,74
565,25	5816,80
565,34	3197,66
565,43	3134,38
565,51	2935,52
565,60	4110,63
565,69	3118,56
565,78	4248,48
565,87	2872,24
565,96	2833,82
566,05	3900,46
566,14	4386,33
566,23	4133,22
566,32	4716,26
566,40	4668,80
566,49	5132,07
566,58	4198,76
566,67	4395,36
566,76	4219,10
566,85	4155,82
566,94	4275,59
567,03	4460,90
567,11	3796,51
567,20	3753,57
567,29	4180,68
567,38	3769,39
567,47	3012,35
567,56	3380,70
567,65	3477,87
567,73	2915,18
567,82	2865,46
567,91	3353,58
568,00	3231,55
568,09	3746,79
568,18	2912,92
568,27	3093,70
568,35	3251,89
568,44	3484,65
568,53	3423,64
568,62	2732,13
568,71	2786,37
568,80	2949,08
568,88	3514,03
568,97	3778,43
569,06	2781,85
569,15	2926,48
569,24	3412,34
569,32	3453,02
569,41	3138,90
569,50	2793,15
569,59	2750,21
569,68	2781,85
569,76	3179,58
569,85	3371,66
569,94	3782,95
570,03	2940,04
570,12	3590,87
570,20	3281,27
570,29	3486,91
570,38	3468,84
570,47	3437,20
570,56	2824,78
570,64	3034,95
570,73	3190,88
570,82	3895,94
570,91	3550,19
570,99	2779,59
571,08	2650,78
571,17	2931,00
571,26	3588,61
571,34	2851,90
571,43	3247,37
571,52	3310,65
571,61	2747,95
571,69	2680,16
571,78	3373,92
571,87	3507,25
571,96	3507,25
572,04	3504,99
572,13	3439,46
572,22	2750,21
572,31	2716,31
572,39	2910,66
572,48	3186,36
572,57	3043,99
572,66	2804,45
572,74	2634,96
572,83	3403,30
572,92	2926,48
573,00	2689,19
573,09	3330,99
573,18	3570,53
573,27	3572,79
573,35	2863,20
573,44	2743,43
573,53	3177,32
573,61	3217,99
573,70	3340,03
573,79	2888,06
573,87	4253,00
573,96	2985,23
574,05	3283,53
574,14	3421,38
574,22	3145,68
574,31	3823,63
574,40	3129,86
574,48	3568,27
574,57	3821,37
574,66	3841,71
574,74	4022,49
574,83	4867,67
574,92	5204,38
575,00	4695,92
575,09	5658,61
575,18	5434,89
575,26	6709,43
575,35	5780,64
575,43	5812,28
575,52	6368,19
575,61	6013,40
575,69	5864,25
575,78	4928,68
575,87	5834,87
575,95	4524,17
576,04	3932,10
576,13	4056,39
576,21	3611,20
576,30	3871,08
576,38	3728,72
576,47	3423,64
576,56	3398,78
576,64	3527,59
576,73	3909,50
576,82	3753,57
576,90	3590,87
576,99	3579,57
577,07	3360,36
577,16	3312,91
577,25	3660,92
577,33	4560,33
577,42	3414,60
577,50	3071,11
577,59	3636,06
577,68	3891,42
577,76	3211,22
577,85	3102,74
577,93	3274,49
578,02	3240,59
578,10	3190,88
578,19	3224,77
578,28	3014,61
578,36	3159,24
578,45	3095,96
578,53	2723,09
578,62	2808,97
578,70	2745,69
578,79	2971,67
578,88	3057,55
578,96	2815,75
579,05	2718,57
579,13	3968,26
579,22	3290,31
579,30	2863,20
579,39	3224,77
579,47	3810,07
579,56	2777,33
579,64	5242,80
579,73	3005,57
579,82	3217,99
579,90	2709,53
579,99	2790,89
580,07	3120,82
580,16	3150,20
580,24	3344,54
580,33	2395,42
580,41	3032,69
580,50	2551,35
580,58	2840,60
580,67	2854,16
580,75	2976,19
580,84	2910,66
580,92	2666,60
581,01	3771,65
581,09	2666,60
581,18	2897,10
581,26	2675,64
581,35	2582,98
581,43	3242,85
581,52	2894,84
581,60	3102,74
581,69	2924,22
581,77	2976,19
581,86	3071,11
581,94	2863,20
582,02	3405,56
582,11	2551,35
582,19	3629,28
582,28	4076,73
582,36	3866,56
582,45	3773,91
582,53	2756,99
582,62	2747,95
582,70	2677,90
582,79	3077,89
582,87	2677,90
582,96	2996,53
583,04	3667,70
583,12	2996,53
583,21	3037,21
583,29	3152,46
583,38	3084,66
583,46	2879,02
583,55	3037,21
583,63	2594,28
583,71	3084,66
583,80	2912,92
583,88	2637,22
583,97	4126,45
584,05	3297,09
584,13	3337,77
584,22	3324,21
584,30	2797,67
584,39	3297,09
584,47	3346,80
584,55	2743,43
584,64	3048,51
584,72	3098,22
584,81	2793,15
584,89	2734,39
584,97	2614,62
585,06	2616,88
585,14	3012,35
585,23	3116,30
585,31	2526,49
585,39	2784,11
585,48	3102,74
585,56	2454,17
585,64	3177,32
585,73	3053,03
585,81	2874,50
585,90	3247,37
585,98	2734,39
586,06	2793,15
586,15	3581,83
586,23	2472,25
586,31	2684,68
586,40	2531,01
586,48	3459,80
586,56	2750,21
586,65	2659,82
586,73	2549,09
586,81	3206,70
586,90	2804,45
586,98	2454,17
587,06	2445,13
587,15	2763,77
587,23	2759,25
587,31	2890,32
587,40	2691,45
587,48	2639,48
587,56	3502,73
587,65	4282,37
587,73	3240,59
587,81	3168,28
587,90	3873,34
587,98	2976,19
588,06	2695,97
588,14	2612,36
588,23	2842,86
588,31	3559,23
588,39	3195,40
588,48	2849,64
588,56	2673,38
588,64	3005,57
588,72	2949,08
588,81	2605,58
588,89	2840,60
588,97	2811,23
589,06	3410,08
589,14	3382,96
589,22	3064,33
589,30	2840,60
589,39	2623,66
589,47	3220,25
589,55	3654,14
589,63	2971,67
589,72	2770,55
589,80	2725,35
589,88	3091,44
589,96	3308,39
590,05	2980,71
590,13	2946,82
590,21	3378,44
590,29	3514,03
590,38	3163,76
590,46	3448,50
590,54	2540,05
590,62	2587,50
590,71	3340,03
590,79	3371,66
590,87	2499,37
590,95	2601,06
591,03	2725,35
591,12	2962,63
591,20	2707,27
591,28	3746,79
591,36	3039,47
591,44	2770,55
591,53	2824,78
591,61	2806,71
591,69	2555,86
591,77	2942,30
591,85	2847,38
591,94	2578,46
592,02	2680,16
592,10	3315,17
592,18	3120,82
592,26	2804,45
592,34	2567,16
592,43	2451,91
592,51	2436,09
592,59	2695,97
592,67	3089,18
592,75	2650,78
592,84	2858,68
592,92	3319,69
593,00	2723,09
593,08	2673,38
593,16	2512,93
593,24	2691,45
593,32	3170,54
593,41	2836,08
593,49	2415,76
593,57	2734,39
593,65	2569,42
593,73	3023,65
593,81	2967,15
593,89	3263,19
593,98	2657,56
594,06	2598,80
594,14	2418,02
594,22	2623,66
594,30	2698,23
594,38	2806,71
594,46	3315,17
594,54	3294,83
594,62	3204,44
594,71	2790,89
594,79	2544,57
594,87	2754,73
594,95	2770,55
595,03	3283,53
595,11	2824,78
595,19	3706,12
595,27	2842,86
595,35	2743,43
595,43	2612,36
595,52	2634,96
595,60	2756,99
595,68	3954,70
595,76	2540,05
595,84	3109,52
595,92	2551,35
596,00	3491,43
596,08	3281,27
596,16	2874,50
596,24	2840,60
596,32	2653,04
596,40	3082,40
596,48	3073,37
596,56	3075,63
596,64	2521,97
596,73	3423,64
596,81	2644,00
596,89	2992,01
596,97	2449,65
597,05	4494,80
597,13	2813,49
597,21	2418,02
597,29	2707,27
597,37	3292,57
597,45	3068,85
597,53	2587,50
597,61	2851,90
597,69	3181,84
597,77	2772,81
597,85	2582,98
597,93	2840,60
598,01	2804,45
598,09	3154,72
598,17	2729,87
598,25	2881,28
598,33	2406,72
598,41	2675,64
598,49	2357,00
598,57	2540,05
598,65	2673,38
598,73	2707,27
598,81	2940,04
598,89	2790,89
598,97	2469,99
599,05	3414,60
599,13	2580,72
599,21	2578,46
599,29	2845,12
599,37	2605,58
599,45	2546,83
599,53	3446,24
599,61	2485,81
599,69	2978,45
599,77	2641,74
599,85	2497,11
599,93	2630,44
600,00	2429,31
600,08	3012,35
600,16	2366,04
600,24	2422,54
600,32	3432,68
600,40	3706,12
600,48	3371,66
600,56	3317,43
600,64	3299,35
600,72	2799,93
600,80	2779,59
600,88	2664,34
600,96	3272,23
601,04	2406,72
601,12	2481,29
601,19	2273,39
601,27	2619,14
601,35	2860,94
601,43	2542,31
601,51	2847,38
601,59	2546,83
601,67	2440,61
601,75	2598,80
601,83	2752,47
601,91	2273,39
601,98	2327,62
602,06	3215,73
602,14	2750,21
602,22	2935,52
602,30	3114,04
602,38	2813,49
602,46	2458,69
602,54	3208,96
602,61	2933,26
602,69	2845,12
602,77	2327,62
602,85	2465,47
602,93	2598,80
603,01	2723,09
603,09	3220,25
603,17	2682,42
603,24	2944,56
603,32	2280,17
603,40	2795,41
603,48	2912,92
603,56	2413,50
603,64	2797,67
603,71	2442,87
603,79	2716,31
603,87	3073,37
603,95	3848,49
604,03	2766,03
604,11	3190,88
604,18	2786,37
604,26	2558,12
604,34	2372,82
604,42	2833,82
604,50	2481,29
604,57	2449,65
604,65	2698,23
604,73	2641,74
604,81	2879,02
604,89	2429,31
604,96	2644,00
605,04	2897,10
605,12	2628,18
605,20	3102,74
605,28	3233,81
605,35	2693,71
605,43	2840,60
605,51	2571,68
605,59	3105,00
605,67	3622,50
605,74	2788,63
605,82	2869,98
605,90	2650,78
605,98	3062,07
606,05	2813,49
606,13	3134,38
606,21	2851,90
606,29	2723,09
606,36	2836,08
606,44	2759,25
606,52	2906,14
606,60	2775,07
606,67	2469,99
606,75	2630,44
606,83	2350,22
606,91	3179,58
606,98	2476,77
607,06	2840,60
607,14	2684,68
607,22	2689,19
607,29	2512,93
607,37	2680,16
607,45	2885,80
607,52	3028,17
607,60	3073,37
607,68	2770,55
607,76	2903,88
607,83	2293,72
607,91	2912,92
607,99	2865,46
608,06	2759,25
608,14	2560,38
608,22	2711,79
608,30	3337,77
608,37	2429,31
608,45	2225,93
608,53	2759,25
608,60	2815,75
608,68	2512,93
608,76	2664,34
608,83	3102,74
608,91	2429,31
608,99	3007,83
609,06	2901,62
609,14	2985,23
609,22	2630,44
609,29	2485,81
609,37	2332,14
609,45	3141,16
609,52	2483,55
609,60	2384,12
609,68	2463,21
609,75	2693,71
609,83	2259,83
609,91	3520,81
609,98	2605,58
610,06	2551,35
610,13	2795,41
610,21	2695,97
610,29	2610,10
610,36	2350,22
610,44	2483,55
610,52	2668,86
610,59	2447,39
610,67	2431,57
610,74	2675,64
610,82	2517,45
610,90	2793,15
610,97	2621,40
611,05	2955,85
611,13	2863,20
611,20	3403,30
611,28	2413,50
611,35	2571,68
611,43	2250,79
611,51	2781,85
611,58	2743,43
611,66	3208,96
611,73	2438,35
611,81	3206,70
611,88	2788,63
611,96	2982,97
612,04	2366,04
612,11	2309,54
612,19	3430,42
612,26	2533,27
612,34	2732,13
612,41	2542,31
612,49	2239,49
612,57	2192,03
612,64	2221,41
612,72	3265,45
612,79	3715,16
612,87	2334,40
612,94	2219,15
613,02	2630,44
613,09	2510,67
613,17	2858,68
613,24	2467,73
613,32	2980,71
613,40	2418,02
613,47	2573,94
613,55	2241,75
613,62	3014,61
613,70	3159,24
613,77	2472,25
613,85	3014,61
613,92	2510,67
614,00	2347,96
614,07	2488,07
614,15	2295,98
614,22	2343,44
614,30	2813,49
614,37	2440,61
614,45	2528,75
614,52	2442,87
614,60	2582,98
614,67	3068,85
614,75	2366,04
614,82	2872,24
614,90	2447,39
614,97	2395,42
615,05	3211,22
615,12	2960,37
615,20	2741,17
615,27	2603,32
615,34	2623,66
615,42	2370,56
615,49	2592,02
615,57	2266,61
615,64	2318,58
615,72	2404,46
615,79	2379,60
615,87	2747,95
615,94	3073,37
616,02	2573,94
616,09	2998,79
616,16	2709,53
616,24	2573,94
616,31	2295,98
616,39	3480,13
616,46	3102,74
616,54	2666,60
616,61	3407,82
616,68	2316,32
616,76	2558,12
616,83	2775,07
616,91	2427,05
616,98	2246,27
617,06	2958,11
617,13	2336,66
617,20	2379,60
617,28	2601,06
617,35	2309,54
617,43	3028,17
617,50	2384,12
617,57	2499,37
>>>>>End Processed Spectral Data<<<<<
