SpectraSuite Datei
++++++++++++++++++++++++++++++++++++
Datum: Sun Jan 04 05:52:15 CET 2004
Benutzer: H. Stützler
Dark-Spektrum vorhanden: Nein
Referenz-Spektrum vorhanden: Nein
Zahl der probierten Teilspektren: 1
Spektrometer: USB2+H04734
Integrationszeit (usec): 1000000 (USB2+H04734)
Spektren Durchschnitt berechnet: 10 (USB2+H04734)
Boxcar Glättung: 0 (USB2+H04734)
Dunkelstromkorrektur: Nein (USB2+H04734)
Puls/Lampe aktiviert: Nein (USB2+H04734)
Correct for Detector Non-linearity: Nein (USB2+H04734)
Streulichtkorrektur: Nein (USB2+H04734)
Anzahl Pixel in verarbeitetem Spektrum: 2048
>>>>>Begin Processed Spectral Data<<<<<
418,45	1223,70
418,57	1223,70
418,69	1223,70
418,80	1163,13
418,92	1136,69
419,04	1359,51
419,16	1190,03
419,28	1199,97
419,40	1187,31
419,52	1197,93
419,64	1167,88
419,75	1184,83
419,87	1197,93
419,99	1175,56
420,11	1198,39
420,23	1225,05
420,35	1265,73
420,47	1268,67
420,58	1226,63
420,70	1254,43
420,82	1268,67
420,94	1305,95
421,06	1347,31
421,18	1320,42
421,29	1319,97
421,41	1295,33
421,53	1332,39
421,65	1401,09
421,77	1404,93
421,89	1338,50
422,00	1441,54
422,12	1340,98
422,24	1363,13
422,36	1444,71
422,48	1453,52
422,59	1385,50
422,71	1425,05
422,83	1356,57
422,95	1374,65
423,07	1423,92
423,18	1464,82
423,30	1438,38
423,42	1391,60
423,54	1402,90
423,66	1390,47
423,77	1410,13
423,89	1384,60
424,01	1372,17
424,13	1373,52
424,25	1359,29
424,36	1438,61
424,48	1386,86
424,60	1379,17
424,72	1475,67
424,84	1379,40
424,95	1452,17
425,07	1389,57
425,19	1395,67
425,31	1399,96
425,42	1372,39
425,54	1418,27
425,66	1394,09
425,78	1373,75
425,89	1389,12
426,01	1377,82
426,13	1356,80
426,25	1411,49
426,36	1366,97
426,48	1426,86
426,60	1412,17
426,72	1354,09
426,83	1427,08
426,95	1403,35
427,07	1375,11
427,19	1482,90
427,30	1363,35
427,42	1336,24
427,54	1353,18
427,66	1387,76
427,77	1371,94
427,89	1395,90
428,01	1389,12
428,12	1419,17
428,24	1337,14
428,36	1366,07
428,48	1342,79
428,59	1349,34
428,71	1385,50
428,83	1346,41
428,94	1385,50
429,06	1380,75
429,18	1416,91
429,30	1395,90
429,41	1406,29
429,53	1416,23
429,65	1432,50
429,76	1427,99
429,88	1361,55
430,00	1399,29
430,11	1439,51
430,23	1381,43
430,35	1475,22
430,47	1370,81
430,58	1368,55
430,70	1419,17
430,82	1395,90
430,93	1561,09
431,05	1411,26
431,17	1404,26
431,28	1425,73
431,40	1366,74
431,52	1468,89
431,63	1363,13
431,75	1361,09
431,87	1400,19
431,98	1415,33
432,10	1380,75
432,22	1378,49
432,33	1461,66
432,45	1389,57
432,56	1425,95
432,68	1415,78
432,80	1390,02
432,91	1429,34
433,03	1400,87
433,15	1452,39
433,26	1373,98
433,38	1367,20
433,50	1366,97
433,61	1426,86
433,73	1460,75
433,84	1409,00
433,96	1369,68
434,08	1389,79
434,19	1385,95
434,31	1371,72
434,43	1388,66
434,54	1392,51
434,66	1348,89
434,77	1370,81
434,89	1417,36
435,01	1395,22
435,12	1365,84
435,24	1379,40
435,35	1378,49
435,47	1469,57
435,59	1395,44
435,70	1360,87
435,82	1394,31
435,93	1418,04
436,05	1411,94
436,17	1403,35
436,28	1408,32
436,40	1414,43
436,51	1366,29
436,63	1382,56
436,74	1435,44
436,86	1457,14
436,98	1628,88
437,09	1395,90
437,21	1419,40
437,32	1376,01
437,44	1436,57
437,55	1387,53
437,67	1758,60
437,79	1512,50
437,90	1432,28
438,02	1373,98
438,13	2226,38
438,25	1469,34
438,36	1442,45
438,48	1410,36
438,59	1426,40
438,71	1389,12
438,83	1340,08
438,94	1353,18
439,06	1465,27
439,17	1432,96
439,29	1374,43
439,40	1396,57
439,52	1375,11
439,63	1403,58
439,75	1369,46
439,86	1352,51
439,98	1404,03
440,09	1435,22
440,21	1392,05
440,32	1387,99
440,44	1349,34
440,55	1390,70
440,67	1382,79
440,78	1450,36
440,90	1369,46
441,01	1373,30
441,13	1366,07
441,24	1423,24
441,36	1465,72
441,47	1386,18
441,59	1436,80
441,70	1365,39
441,82	1421,43
441,93	1414,65
442,05	1341,66
442,16	1348,44
442,28	1348,44
442,39	1391,15
442,51	1408,55
442,62	1371,72
442,74	1439,51
442,85	1383,69
442,97	1491,26
443,08	1419,17
443,20	1414,88
443,31	1397,48
443,43	1375,33
443,54	1441,54
443,66	1361,32
443,77	1373,98
443,88	1350,70
444,00	1387,08
444,11	1421,43
444,23	1450,36
444,34	1355,44
444,46	1349,34
444,57	1464,59
444,69	1440,64
444,80	1427,99
444,91	1526,74
445,03	1374,65
445,14	1440,87
445,26	1356,12
445,37	1374,65
445,49	1403,58
445,60	1448,32
445,71	1470,24
445,83	1396,35
445,94	1379,17
446,06	1436,12
446,17	1345,73
446,29	1343,47
446,40	1383,01
446,51	1442,90
446,63	1378,95
446,74	1380,30
446,86	1382,79
446,97	1455,10
447,08	1370,59
447,20	1371,04
447,31	1356,35
447,43	1373,52
447,54	1405,39
447,65	1425,05
447,77	1365,16
447,88	1390,02
448,00	1393,18
448,11	1346,86
448,22	1384,14
448,34	1412,84
448,45	1354,31
448,56	1390,47
448,68	1409,23
448,79	1454,43
448,90	1415,10
449,02	1396,80
449,13	1377,36
449,25	1400,87
449,36	1365,16
449,47	1375,56
449,59	1440,19
449,70	1402,22
449,81	1370,36
449,93	1391,38
450,04	1379,85
450,15	1376,69
450,27	1387,99
450,38	1420,53
450,49	1368,78
450,61	1491,03
450,72	1389,34
450,83	1423,47
450,95	1371,26
451,06	1391,15
451,17	1469,79
451,29	1409,91
451,40	1358,83
451,51	1333,98
451,63	1357,03
451,74	1446,52
451,85	1383,47
451,97	1421,21
452,08	1406,06
452,19	1358,38
452,31	1440,64
452,42	1383,24
452,53	1454,88
452,65	1419,62
452,76	1350,70
452,87	1363,58
452,98	1364,48
453,10	1366,74
453,21	1364,71
453,32	1363,58
453,44	1362,45
453,55	1338,27
453,66	1530,36
453,77	1433,18
453,89	1400,42
454,00	1470,24
454,11	1407,42
454,23	1376,69
454,34	1392,73
454,45	1373,98
454,56	1412,17
454,68	1467,98
454,79	1401,09
454,90	1402,67
455,01	1377,59
455,13	1352,05
455,24	1454,88
455,35	1376,91
455,46	1332,17
455,58	1343,02
455,69	1439,51
455,80	1398,61
455,91	1336,46
456,03	1385,95
456,14	1427,53
456,25	1357,03
456,36	1368,78
456,48	1365,39
456,59	1449,68
456,70	1367,65
456,81	1445,61
456,92	1490,58
457,04	1419,85
457,15	1509,11
457,26	1366,29
457,37	1400,42
457,49	1350,25
457,60	1347,54
457,71	1391,15
457,82	1415,10
457,93	1399,74
458,05	1433,18
458,16	1358,61
458,27	1369,46
458,38	1392,05
458,49	1417,36
458,61	1389,12
458,72	1403,58
458,83	1381,21
458,94	1425,05
459,05	1414,43
459,17	1631,60
459,28	1404,03
459,39	1409,91
459,50	1350,47
459,61	1424,37
459,72	1353,86
459,84	1359,06
459,95	1380,08
460,06	1599,73
460,17	1362,22
460,28	1378,95
460,39	1389,79
460,51	1401,09
460,62	1386,63
460,73	1369,46
460,84	1343,92
460,95	1449,91
461,06	1484,93
461,18	1455,33
461,29	1432,96
461,40	1401,32
461,51	1410,36
461,62	1529,23
461,73	1395,67
461,84	1396,12
461,96	1415,33
462,07	1436,12
462,18	1369,46
462,29	1383,47
462,40	1429,57
462,51	1392,28
462,62	1466,40
462,73	1481,54
462,85	1437,02
462,96	1425,05
463,07	1426,63
463,18	1530,36
463,29	1415,10
463,40	1379,17
463,51	1347,99
463,62	1380,53
463,73	1424,14
463,85	1362,22
463,96	1390,70
464,07	1387,31
464,18	1363,81
464,29	1365,84
464,40	1461,20
464,51	1403,13
464,62	1385,95
464,73	1352,73
464,84	1429,57
464,95	1387,31
465,06	1386,18
465,18	1355,22
465,29	1411,94
465,40	1382,34
465,51	1396,80
465,62	1434,76
465,73	1374,20
465,84	1404,71
465,95	1403,80
466,06	1371,49
466,17	1376,24
466,28	1377,14
466,39	1433,86
466,50	1350,02
466,61	1330,59
466,72	1410,36
466,83	1339,63
466,95	1351,60
467,06	1353,18
467,17	1388,21
467,28	1380,75
467,39	1365,61
467,50	1397,93
467,61	1364,48
467,72	1348,89
467,83	1358,61
467,94	1407,87
468,05	1367,87
468,16	1430,70
468,27	1393,86
468,38	1346,63
468,49	1432,05
468,60	1354,54
468,71	1432,05
468,82	1423,69
468,93	1409,91
469,04	1466,85
469,15	1384,37
469,26	1361,77
469,37	1379,40
469,48	1449,91
469,59	1400,64
469,70	1381,21
469,81	1376,01
469,92	1336,01
470,03	1428,21
470,14	1380,30
470,25	1439,28
470,36	1379,40
470,47	1333,75
470,58	1340,98
470,69	1431,15
470,80	1409,45
470,91	1347,99
471,02	1391,83
471,13	1410,13
471,24	1391,38
471,35	1372,39
471,46	1460,53
471,56	1419,85
471,67	1437,48
471,78	1459,62
471,89	1362,68
472,00	1344,37
472,11	1405,84
472,22	1425,73
472,33	1386,40
472,44	1390,02
472,55	1364,71
472,66	1401,32
472,77	1377,36
472,88	1496,23
472,99	1431,83
473,10	1339,63
473,21	1374,88
473,32	1382,56
473,42	1367,20
473,53	1353,64
473,64	1399,06
473,75	1394,99
473,86	1386,18
473,97	1434,76
474,08	1388,66
474,19	1420,75
474,30	1497,59
474,41	1398,16
474,52	1362,90
474,62	1377,59
474,73	1368,78
474,84	1512,50
474,95	1413,30
475,06	1412,17
475,17	1380,08
475,28	1345,50
475,39	1388,89
475,50	1355,22
475,60	1349,57
475,71	1363,13
475,82	1431,60
475,93	1364,71
476,04	1450,36
476,15	1364,48
476,26	1398,16
476,37	1364,03
476,47	1368,55
476,58	1372,39
476,69	1351,38
476,80	1338,27
476,91	1375,56
477,02	1406,06
477,13	1421,43
477,23	1353,18
477,34	1411,71
477,45	1403,58
477,56	1366,74
477,67	1377,36
477,78	1375,11
477,89	1388,89
477,99	1368,55
478,10	1423,47
478,21	1389,57
478,32	1385,95
478,43	1367,42
478,54	1479,74
478,64	1409,91
478,75	1406,29
478,86	1371,94
478,97	1397,70
479,08	1368,10
479,18	1376,46
479,29	1371,26
479,40	1347,54
479,51	1333,52
479,62	1366,52
479,72	1362,22
479,83	1342,56
479,94	1400,42
480,05	1417,59
480,16	1359,51
480,26	1392,51
480,37	1363,13
480,48	1419,17
480,59	1383,69
480,70	1400,64
480,80	1374,43
480,91	1359,96
481,02	1331,94
481,13	1391,15
481,24	1383,47
481,34	1365,84
481,45	1503,24
481,56	1389,79
481,67	1375,33
481,77	1382,56
481,88	1382,34
481,99	1394,77
482,10	1378,27
482,20	1698,49
482,31	1395,67
482,42	1376,69
482,53	1376,91
482,63	1461,43
482,74	1428,44
482,85	1339,63
482,96	1346,41
483,06	1346,86
483,17	1413,75
483,28	1344,15
483,39	1380,75
483,49	1424,60
483,60	1502,33
483,71	1356,35
483,81	1392,28
483,92	1376,01
484,03	1383,69
484,14	1379,85
484,24	1347,99
484,35	1373,75
484,46	1399,06
484,57	1374,20
484,67	1402,90
484,78	1360,87
484,89	1490,81
484,99	1356,80
485,10	1377,59
485,21	1403,58
485,31	1414,65
485,42	1396,12
485,53	1391,83
485,63	1364,94
485,74	1472,05
485,85	1534,65
485,96	2008,99
486,06	1398,61
486,17	1398,61
486,28	1373,75
486,38	1347,99
486,49	1399,96
486,60	1347,99
486,70	1353,18
486,81	1383,24
486,92	1350,47
487,02	1354,77
487,13	1325,16
487,24	1381,88
487,34	1366,07
487,45	1489,23
487,56	1390,70
487,66	1369,68
487,77	1399,74
487,87	1351,38
487,98	1339,17
488,09	1374,20
488,19	1341,43
488,30	1500,53
488,41	1373,07
488,51	1342,34
488,62	1352,96
488,73	1351,83
488,83	1401,32
488,94	1410,13
489,04	1462,56
489,15	1340,53
489,26	1352,05
489,36	1410,36
489,47	1353,64
489,58	1375,33
489,68	1389,34
489,79	1350,70
489,89	1378,27
490,00	1411,04
490,11	1416,01
490,21	1417,82
490,32	1356,12
490,42	1392,73
490,53	1395,67
490,64	1336,01
490,74	1331,94
490,85	1348,21
490,95	1431,15
491,06	1404,26
491,16	1353,41
491,27	1408,32
491,38	1395,22
491,48	1480,19
491,59	1461,66
491,69	1419,62
491,80	1333,75
491,90	1439,74
492,01	1345,95
492,12	1415,10
492,22	1374,65
492,33	1445,16
492,43	1390,70
492,54	1336,01
492,64	1341,89
492,75	1385,73
492,86	1394,31
492,96	1374,20
493,07	1343,69
493,17	1403,58
493,28	1395,90
493,38	1428,44
493,49	1357,03
493,59	1407,87
493,70	1383,01
493,80	1349,80
493,91	1373,07
494,01	1350,92
494,12	1371,94
494,22	1426,86
494,33	1457,59
494,43	1451,94
494,54	1478,83
494,64	1404,03
494,75	1348,67
494,86	1447,19
494,96	1336,91
495,07	1378,04
495,17	1443,13
495,28	1373,52
495,38	1356,80
495,49	1387,76
495,59	1383,92
495,69	1385,05
495,80	1443,35
495,90	1375,33
496,01	1336,24
496,11	1387,53
496,22	1374,88
496,32	1372,39
496,43	1416,46
496,53	1364,03
496,64	1369,23
496,74	1398,83
496,85	1414,65
496,95	1397,93
497,06	1372,17
497,16	1410,58
497,27	1375,11
497,37	1432,96
497,48	1352,96
497,58	1366,74
497,68	1351,83
497,79	1411,49
497,89	1353,41
498,00	1364,26
498,10	1359,29
498,21	1456,68
498,31	1378,72
498,42	1381,88
498,52	1431,83
498,62	1379,40
498,73	1385,50
498,83	1385,27
498,94	1368,33
499,04	1440,64
499,15	1361,09
499,25	1355,67
499,35	1425,05
499,46	1460,75
499,56	1494,88
499,67	1406,74
499,77	1350,92
499,87	1352,05
499,98	1365,84
500,08	1331,72
500,19	1366,97
500,29	1392,05
500,39	1416,01
500,50	1429,79
500,60	1386,18
500,71	1381,66
500,81	1378,95
500,91	1357,48
501,02	1365,16
501,12	1408,55
501,22	1351,60
501,33	1379,62
501,43	1407,42
501,54	1345,73
501,64	1359,51
501,74	1360,19
501,85	1452,17
501,95	1373,98
502,05	1362,45
502,16	1375,33
502,26	1472,73
502,37	1431,37
502,47	1379,62
502,57	1376,69
502,68	1357,93
502,78	1335,78
502,88	1434,09
502,99	1367,65
503,09	1433,41
503,19	1346,86
503,30	1346,86
503,40	1367,65
503,50	1371,04
503,61	1376,91
503,71	1377,36
503,81	1388,44
503,92	1387,53
504,02	1431,15
504,12	1565,83
504,23	1432,96
504,33	1385,27
504,43	1359,29
504,54	1427,76
504,64	1430,02
504,74	1546,63
504,84	1387,76
504,95	1358,38
505,05	1351,83
505,15	1464,59
505,26	1357,48
505,36	1364,94
505,46	1359,29
505,56	1386,63
505,67	1399,51
505,77	1392,73
505,87	1350,47
505,98	1342,34
506,08	1345,73
506,18	1371,94
506,28	1390,02
506,39	1374,65
506,49	1363,13
506,59	1357,70
506,70	1340,08
506,80	1376,69
506,90	1487,19
507,00	1350,02
507,11	1399,96
507,21	1417,59
507,31	1401,77
507,41	1364,71
507,52	1373,07
507,62	1356,12
507,72	1444,93
507,82	1454,88
507,93	1361,77
508,03	1420,30
508,13	1389,34
508,23	1387,99
508,34	1400,64
508,44	1351,38
508,54	1353,18
508,64	1383,47
508,74	1333,75
508,85	1365,61
508,95	1402,22
509,05	1334,65
509,15	1366,52
509,26	1384,60
509,36	1368,55
509,46	1394,31
509,56	1351,60
509,66	1366,52
509,77	1370,13
509,87	1355,22
509,97	1378,27
510,07	1384,60
510,17	1335,11
510,28	1507,76
510,38	1408,10
510,48	1379,85
510,58	1402,22
510,68	1380,98
510,78	1367,20
510,89	1363,13
510,99	1340,53
511,09	1422,79
511,19	1419,17
511,29	1355,22
511,39	1422,56
511,50	1455,55
511,60	1346,63
511,70	1418,49
511,80	1432,50
511,90	1416,01
512,00	1395,67
512,11	1331,49
512,21	1369,46
512,31	1333,75
512,41	1440,87
512,51	1386,18
512,61	1503,69
512,71	1353,18
512,82	1384,14
512,92	1327,65
513,02	1403,80
513,12	1367,87
513,22	1351,38
513,32	1421,21
513,42	1382,11
513,53	1421,43
513,63	1412,39
513,73	1413,07
513,83	1361,77
513,93	1390,02
514,03	1404,48
514,13	1433,63
514,23	1374,43
514,33	1374,20
514,44	1388,66
514,54	1355,67
514,64	1477,48
514,74	1368,55
514,84	1367,65
514,94	1406,74
515,04	1407,87
515,14	1381,43
515,24	1399,74
515,34	1378,95
515,44	1329,00
515,55	1344,15
515,65	1420,08
515,75	1364,71
515,85	1371,04
515,95	1434,09
516,05	1443,58
516,15	1392,28
516,25	1379,17
516,35	1358,38
516,45	1364,71
516,55	1351,38
516,65	1367,42
516,75	1476,57
516,85	1410,13
516,95	1425,27
517,05	1425,50
517,16	1347,99
517,26	1516,57
517,36	1362,22
517,46	1344,15
517,56	1383,47
517,66	1370,36
517,76	1353,86
517,86	1368,55
517,96	1411,71
518,06	1360,87
518,16	1348,44
518,26	1375,33
518,36	1333,07
518,46	1366,07
518,56	1396,12
518,66	1413,75
518,76	1385,50
518,86	1432,05
518,96	1360,87
519,06	1367,42
519,16	1381,21
519,26	1381,43
519,36	1409,91
519,46	1372,39
519,56	1456,23
519,66	1473,63
519,76	1357,48
519,86	1364,48
519,96	1371,94
520,06	1375,33
520,16	1469,34
520,26	1392,05
520,36	1336,24
520,46	1357,70
520,56	1383,92
520,66	1371,94
520,76	1378,72
520,86	1371,04
520,96	1437,70
521,06	1409,45
521,16	1341,66
521,26	1360,64
521,35	1403,35
521,45	1342,11
521,55	1351,15
521,65	1405,16
521,75	1367,42
521,85	1343,47
521,95	1375,11
522,05	1353,64
522,15	1324,26
522,25	1740,75
522,35	1430,02
522,45	1386,63
522,55	1413,75
522,65	1402,00
522,75	1357,25
522,85	1373,75
522,94	1392,05
523,04	1407,65
523,14	1402,22
523,24	1351,83
523,34	1371,26
523,44	1403,80
523,54	1362,68
523,64	1332,17
523,74	1464,37
523,84	1420,30
523,94	1406,74
524,03	1332,62
524,13	1397,03
524,23	1402,45
524,33	1351,15
524,43	1383,01
524,53	1390,70
524,63	1344,82
524,73	1349,12
524,83	1343,47
524,92	1373,52
525,02	1331,26
525,12	1395,67
525,22	1375,78
525,32	1345,50
525,42	1425,73
525,52	1388,89
525,61	1400,87
525,71	1324,94
525,81	1400,64
525,91	1327,20
526,01	1361,09
526,11	1401,09
526,21	1424,14
526,30	1403,80
526,40	1366,52
526,50	1407,19
526,60	1401,55
526,70	1406,97
526,80	1396,57
526,89	1362,45
526,99	1348,67
527,09	1396,80
527,19	1404,48
527,29	1415,33
527,39	1371,94
527,48	1394,99
527,58	1398,16
527,68	1354,31
527,78	1411,04
527,88	1484,71
527,97	1377,59
528,07	1362,90
528,17	1412,39
528,27	1461,66
528,37	1370,81
528,46	1362,00
528,56	1464,14
528,66	1408,10
528,76	1336,24
528,86	1397,03
528,95	1344,15
529,05	1385,05
529,15	1389,34
529,25	1425,05
529,35	1416,23
529,44	1391,83
529,54	1453,75
529,64	1405,84
529,74	1370,81
529,83	1355,22
529,93	1368,33
530,03	1395,44
530,13	1384,60
530,22	1431,60
530,32	1429,79
530,42	1431,37
530,52	1335,56
530,61	1420,30
530,71	1338,04
530,81	1422,79
530,91	1380,98
531,00	1374,65
531,10	1371,49
531,20	1401,09
531,30	1384,82
531,39	1413,75
531,49	1428,21
531,59	1670,92
531,69	1569,68
531,78	1501,88
531,88	1568,77
531,98	1524,25
532,07	1468,21
532,17	1470,02
532,27	1500,07
532,37	1413,52
532,46	1410,13
532,56	1388,44
532,66	1360,19
532,75	1375,11
532,85	1381,21
532,95	1389,79
533,04	1389,79
533,14	1410,81
533,24	1433,86
533,34	1354,54
533,43	1414,20
533,53	1319,74
533,63	1402,45
533,72	1350,47
533,82	1361,32
533,92	1346,41
534,01	1532,39
534,11	1547,76
534,21	1403,80
534,30	1373,75
534,40	1361,09
534,50	1329,91
534,59	1338,50
534,69	1332,85
534,79	1387,76
534,88	1440,87
534,98	1422,79
535,08	1322,45
535,17	1392,28
535,27	1379,85
535,36	1349,12
535,46	1396,35
535,56	1335,56
535,65	1390,92
535,75	1428,44
535,85	1373,98
535,94	1365,84
536,04	1365,84
536,14	1413,75
536,23	1464,59
536,33	1353,64
536,42	1397,25
536,52	1374,88
536,62	1331,04
536,71	1410,36
536,81	1392,96
536,90	1391,15
537,00	1396,80
537,10	1351,38
537,19	1387,53
537,29	1408,55
537,38	1427,99
537,48	1372,17
537,58	1389,12
537,67	1351,15
537,77	1365,39
537,86	1350,92
537,96	1442,90
538,06	1380,75
538,15	1351,60
538,25	1479,74
538,34	1506,40
538,44	1478,61
538,53	1424,60
538,63	1440,87
538,73	1412,62
538,82	1393,86
538,92	1368,33
539,01	1507,30
539,11	1341,89
539,20	1488,77
539,30	1409,23
539,39	1366,74
539,49	1396,12
539,59	1415,10
539,68	1514,54
539,78	1511,60
539,87	1425,50
539,97	1412,62
540,06	1434,54
540,16	1370,59
540,25	1435,44
540,35	1451,26
540,44	1433,18
540,54	1491,03
540,63	1396,12
540,73	1380,75
540,82	1450,36
540,92	1369,91
541,01	1430,47
541,11	1446,97
541,20	1426,86
541,30	1428,89
541,39	1443,80
541,49	1413,97
541,58	1490,36
541,68	1475,44
541,77	1423,47
541,87	1384,14
541,96	1373,30
542,06	1458,04
542,15	1429,79
542,25	1598,83
542,34	1442,90
542,44	1375,33
542,53	1389,34
542,63	1408,32
542,72	1398,16
542,82	1394,77
542,91	1421,66
543,01	1372,39
543,10	1442,67
543,20	1406,97
543,29	1439,06
543,38	1393,64
543,48	1400,64
543,57	1399,06
543,67	1402,45
543,76	1409,91
543,86	1392,28
543,95	1437,70
544,05	1499,17
544,14	1535,55
544,23	1446,74
544,33	1403,35
544,42	1439,06
544,52	1395,44
544,61	1418,72
544,71	1480,19
544,80	1515,67
544,89	1470,70
544,99	1451,04
545,08	1481,09
545,18	1400,87
545,27	1557,02
545,36	1512,73
545,46	1461,88
545,55	1435,89
545,65	1414,43
545,74	1413,97
545,84	1412,62
545,93	1439,51
546,02	1409,00
546,12	1458,04
546,21	1423,01
546,30	1445,61
546,40	1447,87
546,49	1391,60
546,59	1441,32
546,68	1397,70
546,77	1478,15
546,87	1465,50
546,96	1460,53
547,05	1445,61
547,15	1403,58
547,24	1392,73
547,34	1389,12
547,43	1425,27
547,52	1487,42
547,62	1456,46
547,71	1450,58
547,80	1438,38
547,90	1434,54
547,99	1488,55
548,08	1444,48
548,18	1369,46
548,27	1372,62
548,36	1389,57
548,46	1387,08
548,55	1379,17
548,64	1414,65
548,74	1374,65
548,83	1440,64
548,92	1503,24
549,02	1380,75
549,11	1553,18
549,20	1449,00
549,30	1396,57
549,39	1440,87
549,48	1434,99
549,58	1384,14
549,67	1447,65
549,76	1453,52
549,85	1367,65
549,95	1398,38
550,04	1437,70
550,13	1374,20
550,23	1429,34
550,32	1388,44
550,41	1407,19
550,50	1424,82
550,60	1499,85
550,69	1391,38
550,78	1385,73
550,88	1461,66
550,97	1463,01
551,06	1412,84
551,15	1428,21
551,25	1487,87
551,34	1352,05
551,43	1398,16
551,52	1447,87
551,62	1452,39
551,71	1456,68
551,80	1466,85
551,89	1420,98
551,99	1430,24
552,08	1416,23
552,17	1390,92
552,26	1425,50
552,36	1363,35
552,45	1371,04
552,54	1374,88
552,63	1457,14
552,73	1542,56
552,82	1501,88
552,91	1426,40
553,00	1574,20
553,10	1435,89
553,19	1512,73
553,28	1409,45
553,37	1425,27
553,46	1358,61
553,56	1465,95
553,65	1377,14
553,74	1398,38
553,83	1420,75
553,92	1422,34
554,02	1425,50
554,11	1409,91
554,20	1387,53
554,29	1497,14
554,38	1393,41
554,48	1418,04
554,57	1405,39
554,66	1405,61
554,75	1444,03
554,84	1432,96
554,94	1415,78
555,03	1394,54
555,12	1390,25
555,21	1384,37
555,30	1528,77
555,39	1404,48
555,49	1383,69
555,58	1459,40
555,67	1453,75
555,76	1466,63
555,85	1386,40
555,94	1373,52
556,03	1398,83
556,13	1432,05
556,22	1428,21
556,31	1410,13
556,40	1395,67
556,49	1460,98
556,58	1419,17
556,67	1417,14
556,77	1402,22
556,86	1492,39
556,95	1467,98
557,04	1516,80
557,13	1523,58
557,22	1489,00
557,31	1413,97
557,40	1423,69
557,50	1500,07
557,59	1397,93
557,68	1388,66
557,77	1463,24
557,86	1433,86
557,95	1459,62
558,04	1410,13
558,13	1403,13
558,22	1439,51
558,31	1426,63
558,41	1394,09
558,50	1461,66
558,59	1460,75
558,68	1494,88
558,77	1480,87
558,86	1380,98
558,95	1371,49
559,04	1450,13
559,13	1497,36
559,22	1397,93
559,31	1404,03
559,40	1387,08
559,49	1378,04
559,59	1442,45
559,68	1370,81
559,77	1501,88
559,86	1543,69
559,95	1441,09
560,04	1434,31
560,13	1446,29
560,22	1543,69
560,31	1429,11
560,40	1440,64
560,49	1368,33
560,58	1390,47
560,67	1380,08
560,76	1373,07
560,85	1376,69
560,94	1477,48
561,03	1404,26
561,12	1626,17
561,21	1554,76
561,30	1428,66
561,39	1424,60
561,48	1433,86
561,57	1380,08
561,66	1468,21
561,75	1525,38
561,84	1419,62
561,93	1402,45
562,02	1412,62
562,11	1372,17
562,20	1388,66
562,29	1431,60
562,38	1347,54
562,47	1460,53
562,56	1435,89
562,65	1406,06
562,74	1407,19
562,83	1583,24
562,92	1449,68
563,01	1498,04
563,10	1384,60
563,19	1411,71
563,28	1623,69
563,37	1499,62
563,46	1381,43
563,55	1384,60
563,64	1581,88
563,73	1399,51
563,82	1447,87
563,91	1524,03
564,00	1437,48
564,09	1379,17
564,18	1446,06
564,27	1382,56
564,35	1446,74
564,44	1430,70
564,53	1490,36
564,62	1491,94
564,71	1454,43
564,80	1436,80
564,89	1458,49
564,98	2907,49
565,07	1510,47
565,16	1379,17
565,25	1735,10
565,34	1415,56
565,43	1410,81
565,51	1400,42
565,60	1501,66
565,69	1425,50
565,78	1536,23
565,87	1377,14
565,96	1356,35
566,05	1455,78
566,14	1484,71
566,23	1448,10
566,32	1510,47
566,40	1486,97
566,49	1502,56
566,58	1408,32
566,67	1418,04
566,76	1371,26
566,85	1383,92
566,94	1421,43
567,03	1449,91
567,11	1422,11
567,20	1414,65
567,29	1493,97
567,38	1447,87
567,47	1381,21
567,56	1413,97
567,65	1453,52
567,73	1402,22
567,82	1386,63
567,91	1455,33
568,00	1443,13
568,09	1522,90
568,18	1383,47
568,27	1404,26
568,35	1434,76
568,44	1468,66
568,53	1470,02
568,62	1397,93
568,71	1387,53
568,80	1400,42
568,88	1466,40
568,97	1499,62
569,06	1371,72
569,15	1402,00
569,24	1435,89
569,32	1463,46
569,41	1419,85
569,50	1385,50
569,59	1364,03
569,68	1397,48
569,76	1423,92
569,85	1436,35
569,94	1474,09
570,03	1395,90
570,12	1472,05
570,20	1431,37
570,29	1431,37
570,38	1430,70
570,47	1458,49
570,56	1359,74
570,64	1401,09
570,73	1418,04
570,82	1502,33
570,91	1491,71
570,99	1367,65
571,08	1376,91
571,17	1390,02
571,26	1455,33
571,34	1407,65
571,43	1452,84
571,52	1448,10
571,61	1397,03
571,69	1371,26
571,78	1472,05
571,87	1491,03
571,96	1481,32
572,04	1491,26
572,13	1467,98
572,22	1406,97
572,31	1369,23
572,39	1394,31
572,48	1440,41
572,57	1393,18
572,66	1394,54
572,74	1359,96
572,83	1441,09
572,92	1416,23
573,00	1382,56
573,09	1436,57
573,18	1465,95
573,27	1450,13
573,35	1386,18
573,44	1391,60
573,53	1429,11
573,61	1425,50
573,70	1432,50
573,79	1384,82
573,87	1505,27
573,96	1397,93
574,05	1427,31
574,14	1419,17
574,22	1401,09
574,31	1468,66
574,40	1375,78
574,48	1412,84
574,57	1432,50
574,66	1413,75
574,74	1418,49
574,83	1491,03
574,92	1484,93
575,00	1416,01
575,09	1480,87
575,18	1416,46
575,26	1501,20
575,35	1422,79
575,43	1415,10
575,52	1463,92
575,61	1447,42
575,69	1473,86
575,78	1399,06
575,87	1543,91
575,95	1440,87
576,04	1391,83
576,13	1416,23
576,21	1394,31
576,30	1444,93
576,38	1429,57
576,47	1421,43
576,56	1408,78
576,64	1402,67
576,73	1457,81
576,82	1457,36
576,90	1437,02
576,99	1430,92
577,07	1400,42
577,16	1415,78
577,25	1458,49
577,33	1563,35
577,42	1433,86
577,50	1407,87
577,59	1435,67
577,68	1503,69
577,76	1430,24
577,85	1413,07
577,93	1450,13
578,02	1454,43
578,10	1440,87
578,19	1439,28
578,28	1407,19
578,36	1427,99
578,45	1443,35
578,53	1377,82
578,62	1374,43
578,70	1392,05
578,79	1414,20
578,88	1421,88
578,96	1384,82
579,05	1386,63
579,13	1552,95
579,22	1445,84
579,30	1413,07
579,39	1460,75
579,47	1484,48
579,56	1398,38
579,64	1694,19
579,73	1407,87
579,82	1454,65
579,90	1392,05
579,99	1389,34
580,07	1442,90
580,16	1430,24
580,24	1468,89
580,33	1375,11
580,41	1419,62
580,50	1402,90
580,58	1410,81
580,67	1424,60
580,75	1425,05
580,84	1429,11
580,92	1369,91
581,01	1525,84
581,09	1400,19
581,18	1403,58
581,26	1396,80
581,35	1395,67
581,43	1467,08
581,52	1426,86
581,60	1435,67
581,69	1423,24
581,77	1425,73
581,86	1451,94
581,94	1412,62
582,02	1454,43
582,11	1394,09
582,19	1511,15
582,28	1541,88
582,36	1508,21
582,45	1534,20
582,53	1405,61
582,62	1366,52
582,70	1419,62
582,79	1451,26
582,87	1385,73
582,96	1437,93
583,04	1524,48
583,12	1455,10
583,21	1423,24
583,29	1469,57
583,38	1454,43
583,46	1408,55
583,55	1431,83
583,63	1402,45
583,71	1470,92
583,80	1427,76
583,88	1393,41
583,97	1578,49
584,05	1437,70
584,13	1464,59
584,22	1454,20
584,30	1417,14
584,39	1460,30
584,47	1460,53
584,55	1399,06
584,64	1440,19
584,72	1447,65
584,81	1393,86
584,89	1385,27
584,97	1380,98
585,06	1401,77
585,14	1426,63
585,23	1448,32
585,31	1382,56
585,39	1403,13
585,48	1433,18
585,56	1377,82
585,64	1460,07
585,73	1422,56
585,81	1409,91
585,90	1462,56
585,98	1410,58
586,06	1410,36
586,15	1503,92
586,23	1360,64
586,31	1406,06
586,40	1394,99
586,48	1501,43
586,56	1411,94
586,65	1376,24
586,73	1399,06
586,81	1468,44
586,90	1397,70
586,98	1369,00
587,06	1372,62
587,15	1400,42
587,23	1391,15
587,31	1419,40
587,40	1421,66
587,48	1383,24
587,56	1489,00
587,65	1602,44
587,73	1474,54
587,81	1459,62
587,90	1545,72
587,98	1435,44
588,06	1412,62
588,14	1408,55
588,23	1411,04
588,31	1520,86
588,39	1442,22
588,48	1417,82
588,56	1398,38
588,64	1448,10
588,72	1431,37
588,81	1426,40
588,89	1412,84
588,97	1411,94
589,06	1496,23
589,14	1501,43
589,22	1445,39
589,30	1442,45
589,39	1395,67
589,47	1449,91
589,55	1515,89
589,63	1434,54
589,72	1411,49
589,80	1410,81
589,88	1449,00
589,96	1463,24
590,05	1434,54
590,13	1431,60
590,21	1457,81
590,29	1500,30
590,38	1453,30
590,46	1484,25
590,54	1362,22
590,62	1381,43
590,71	1475,67
590,79	1503,92
590,87	1407,87
590,95	1393,64
591,03	1425,73
591,12	1437,25
591,20	1421,88
591,28	1530,81
591,36	1453,97
591,44	1388,66
591,53	1425,27
591,61	1417,36
591,69	1405,16
591,77	1427,99
591,85	1425,27
591,94	1402,90
592,02	1403,13
592,10	1469,34
592,18	1478,61
592,26	1439,96
592,34	1401,55
592,43	1386,18
592,51	1381,66
592,59	1387,76
592,67	1402,67
592,75	1393,86
592,84	1399,96
592,92	1460,30
593,00	1407,65
593,08	1411,71
593,16	1405,61
593,24	1378,72
593,32	1458,72
593,41	1438,38
593,49	1383,01
593,57	1397,25
593,65	1398,38
593,73	1426,63
593,81	1444,48
593,89	1473,18
593,98	1414,43
594,06	1398,38
594,14	1401,55
594,22	1392,73
594,30	1371,26
594,38	1415,10
594,46	1461,43
594,54	1460,98
594,62	1474,09
594,71	1414,65
594,79	1398,16
594,87	1419,17
594,95	1406,29
595,03	1466,40
595,11	1408,78
595,19	1524,03
595,27	1422,56
595,35	1397,03
595,43	1397,25
595,52	1400,42
595,60	1421,66
595,68	1537,36
595,76	1393,41
595,84	1462,11
595,92	1383,92
596,00	1485,84
596,08	1467,53
596,16	1431,15
596,24	1413,97
596,32	1400,19
596,40	1456,46
596,48	1468,21
596,56	1460,07
596,64	1393,41
596,73	1497,36
596,81	1399,29
596,89	1437,48
596,97	1385,50
597,05	1591,60
597,13	1434,54
597,21	1367,65
597,29	1417,82
597,37	1491,94
597,45	1439,96
597,53	1404,48
597,61	1434,54
597,69	1460,75
597,77	1417,59
597,85	1395,67
597,93	1421,21
598,01	1400,87
598,09	1471,83
598,17	1406,52
598,25	1409,45
598,33	1387,53
598,41	1418,27
598,49	1388,21
598,57	1384,60
598,65	1399,29
598,73	1416,69
598,81	1401,55
598,89	1418,04
598,97	1388,44
599,05	1482,22
599,13	1407,87
599,21	1385,73
599,29	1420,98
599,37	1411,94
599,45	1415,78
599,53	1493,07
599,61	1400,64
599,69	1445,61
599,77	1419,17
599,85	1403,13
599,93	1422,56
600,00	1402,45
600,08	1446,29
600,16	1367,87
600,24	1364,03
600,32	1502,56
600,40	1525,61
600,48	1483,35
600,56	1489,23
600,64	1463,46
600,72	1424,14
600,80	1394,09
600,88	1411,04
600,96	1479,06
601,04	1382,11
601,12	1389,79
601,19	1373,75
601,27	1395,44
601,35	1413,97
601,43	1402,45
601,51	1424,60
601,59	1388,21
601,67	1396,80
601,75	1379,17
601,83	1422,56
601,91	1368,78
601,98	1391,15
602,06	1470,47
602,14	1441,54
602,22	1451,94
602,30	1469,11
602,38	1420,08
602,46	1392,05
602,54	1468,66
602,61	1431,83
602,69	1429,11
602,77	1382,56
602,85	1393,64
602,93	1384,82
603,01	1428,21
603,09	1459,85
603,17	1393,64
603,24	1430,92
603,32	1386,40
603,40	1417,59
603,48	1434,76
603,56	1361,09
603,64	1379,62
603,71	1371,26
603,79	1418,49
603,87	1456,23
603,95	1547,76
604,03	1405,16
604,11	1454,43
604,18	1429,79
604,26	1388,21
604,34	1377,82
604,42	1423,69
604,50	1394,31
604,57	1373,75
604,65	1420,30
604,73	1408,32
604,81	1425,95
604,89	1371,94
604,96	1399,51
605,04	1437,02
605,12	1410,81
605,20	1467,31
605,28	1464,37
605,35	1420,30
605,43	1432,50
605,51	1407,87
605,59	1459,62
605,67	1530,36
605,74	1434,76
605,82	1412,17
605,90	1398,38
605,98	1435,22
606,05	1411,94
606,13	1462,56
606,21	1432,28
606,29	1403,58
606,36	1410,13
606,44	1402,00
606,52	1423,01
606,60	1416,01
606,67	1351,83
606,75	1404,03
606,83	1356,12
606,91	1458,27
606,98	1360,64
607,06	1408,78
607,14	1413,07
607,22	1428,21
607,29	1390,47
607,37	1439,06
607,45	1453,52
607,52	1448,55
607,60	1426,86
607,68	1409,23
607,76	1441,77
607,83	1376,01
607,91	1463,92
607,99	1439,28
608,06	1429,79
608,14	1398,16
608,22	1388,21
608,30	1469,11
608,37	1382,79
608,45	1348,21
608,53	1411,04
608,60	1421,21
608,68	1363,81
608,76	1411,26
608,83	1457,81
608,91	1364,94
608,99	1456,01
609,06	1421,88
609,14	1440,64
609,22	1399,51
609,29	1388,21
609,37	1382,79
609,45	1441,09
609,52	1399,51
609,60	1360,64
609,68	1397,03
609,75	1430,24
609,83	1358,61
609,91	1515,67
609,98	1395,44
610,06	1372,39
610,13	1414,65
610,21	1423,24
610,29	1423,47
610,36	1368,10
610,44	1403,13
610,52	1385,95
610,59	1371,72
610,67	1365,16
610,74	1417,82
610,82	1391,60
610,90	1430,24
610,97	1385,73
611,05	1453,97
611,13	1403,80
611,20	1496,01
611,28	1394,54
611,35	1408,32
611,43	1373,07
611,51	1420,08
611,58	1418,72
611,66	1484,03
611,73	1354,54
611,81	1478,83
611,88	1423,92
611,96	1440,87
612,04	1377,14
612,11	1375,11
612,19	1498,04
612,26	1394,54
612,34	1426,40
612,41	1413,07
612,49	1346,18
612,57	1375,33
612,64	1358,61
612,72	1477,70
612,79	1513,86
612,87	1369,68
612,94	1375,11
613,02	1403,13
613,09	1400,42
613,17	1432,28
613,24	1380,98
613,32	1459,62
613,40	1414,20
613,47	1405,84
613,55	1364,71
613,62	1445,61
613,70	1457,14
613,77	1375,33
613,85	1465,72
613,92	1397,48
614,00	1386,18
614,07	1379,85
614,15	1359,29
614,22	1372,39
614,30	1413,52
614,37	1372,62
614,45	1390,92
614,52	1380,98
614,60	1398,16
614,67	1434,76
614,75	1378,72
614,82	1425,73
614,90	1391,83
614,97	1369,91
615,05	1501,88
615,12	1450,13
615,20	1409,45
615,27	1390,70
615,34	1401,32
615,42	1377,36
615,49	1399,29
615,57	1353,64
615,64	1388,21
615,72	1371,72
615,79	1373,07
615,87	1416,23
615,94	1456,68
616,02	1421,21
616,09	1471,15
616,16	1422,56
616,24	1401,77
616,31	1368,78
616,39	1465,05
616,46	1456,91
616,54	1417,59
616,61	1489,90
616,68	1350,70
616,76	1383,47
616,83	1414,88
616,91	1375,33
616,98	1370,36
617,06	1435,22
617,13	1376,01
617,20	1376,91
617,28	1396,57
617,35	1354,09
617,43	1476,12
617,50	1388,89
617,57	1378,72
>>>>>End Processed Spectral Data<<<<<
