SpectraSuite Datei
++++++++++++++++++++++++++++++++++++
Datum: Fri Jan 02 02:15:20 CET 2004
Benutzer: Student
Dark-Spektrum vorhanden: Nein
Referenz-Spektrum vorhanden: Nein
Zahl der probierten Teilspektren: 1
Spektrometer: USB2+H04734
Integrationszeit (usec): 30000000 (USB2+H04734)
Spektren Durchschnitt berechnet: 10 (USB2+H04734)
Boxcar Glättung: 0 (USB2+H04734)
Dunkelstromkorrektur: Nein (USB2+H04734)
Puls/Lampe aktiviert: Nein (USB2+H04734)
Correct for Detector Non-linearity: Nein (USB2+H04734)
Streulichtkorrektur: Nein (USB2+H04734)
Anzahl Pixel in verarbeitetem Spektrum: 2048
>>>>>Begin Processed Spectral Data<<<<<
418,45	1354,31
418,57	1354,31
418,69	1354,31
418,80	1283,81
418,92	1265,96
419,04	7530,88
419,16	3643,75
419,28	3822,72
419,40	3266,13
419,52	3846,90
419,64	3190,20
419,75	3366,69
419,87	3516,74
419,99	3040,15
420,11	3276,30
420,23	3582,50
420,35	4743,15
420,47	3960,80
420,58	3272,91
420,70	4164,86
420,82	3823,40
420,94	4668,80
421,06	6107,86
421,18	4799,87
421,29	4160,34
421,41	3449,85
421,53	4190,85
421,65	5435,56
421,77	5317,15
421,89	4104,30
422,00	6382,66
422,12	3984,75
422,24	3749,96
422,36	5803,01
422,48	5672,17
422,59	4222,04
422,71	5388,11
422,83	3394,04
422,95	3756,51
423,07	4995,12
423,18	6316,44
423,30	5435,56
423,42	3788,60
423,54	4323,95
423,66	3734,82
423,77	4525,30
423,89	3959,90
424,01	3583,86
424,13	3296,86
424,25	3562,17
424,36	4707,22
424,48	4368,25
424,60	3919,90
424,72	6087,30
424,84	3922,83
424,95	5706,52
425,07	4376,16
425,19	4368,47
425,31	4645,30
425,42	3337,54
425,54	4965,75
425,66	4758,07
425,78	3782,50
425,89	4347,00
426,01	3902,95
426,13	4130,51
426,25	5711,04
426,36	3986,56
426,48	4996,03
426,60	5181,78
426,72	4056,62
426,83	5210,71
426,95	4852,53
427,07	4175,26
427,19	7009,53
427,30	4362,60
427,42	3220,48
427,54	3483,52
427,66	3980,91
427,77	3677,64
427,89	4538,19
428,01	4847,10
428,12	4969,81
428,24	3239,01
428,36	3462,28
428,48	3228,39
428,59	3392,00
428,71	4414,35
428,83	3330,53
428,94	3810,52
429,06	3782,73
429,18	4964,39
429,30	4307,23
429,41	3871,76
429,53	5431,27
429,65	5201,90
429,76	4803,04
429,88	3764,42
430,00	4714,23
430,11	5911,26
430,23	3934,36
430,35	6487,06
430,47	3865,89
430,58	3370,76
430,70	5423,59
430,82	4636,26
430,93	9086,99
431,05	4403,95
431,17	4086,22
431,28	5477,60
431,40	3588,38
431,52	6483,90
431,63	3347,48
431,75	3286,24
431,87	4007,58
431,98	5319,86
432,10	4400,56
432,22	4000,12
432,33	5781,77
432,45	4267,46
432,56	4474,01
432,68	5140,88
432,80	3831,31
432,91	5254,33
433,03	4445,98
433,15	5893,63
433,26	4561,91
433,38	4038,31
433,50	3108,17
433,61	5419,74
433,73	6163,91
433,84	4064,98
433,96	3468,61
434,08	4197,40
434,19	3958,31
434,31	3939,78
434,43	4377,29
434,54	4168,03
434,66	3205,79
434,77	3109,30
434,89	5206,64
435,01	4575,47
435,12	3393,36
435,24	3856,85
435,35	3775,95
435,47	6734,74
435,59	4215,93
435,70	3586,57
435,82	4140,91
435,93	5587,42
436,05	4402,14
436,17	4019,10
436,28	4864,50
436,40	4714,68
436,51	3426,12
436,63	4037,63
436,74	5578,84
436,86	6513,05
436,98	10944,12
437,09	3941,37
437,21	5270,82
437,32	3481,26
437,44	5153,76
437,55	3782,05
437,67	14609,11
437,79	7716,63
437,90	4769,37
438,02	3608,72
438,13	38809,15
438,25	5992,61
438,36	5267,43
438,48	4759,42
438,59	5650,70
438,71	4507,23
438,83	3631,77
438,94	3371,89
439,06	5686,18
439,17	5412,97
439,29	3647,59
439,40	4414,35
439,52	3945,88
439,63	4824,28
439,75	3385,22
439,86	3336,64
439,98	4267,68
440,09	5325,06
440,21	4105,65
440,32	3814,36
440,44	3129,41
440,55	4262,49
440,67	3833,80
440,78	5831,03
440,90	3430,42
441,01	3849,84
441,13	3464,77
441,24	4674,00
441,36	6038,71
441,47	3636,06
441,59	5337,49
441,70	3335,96
441,82	5380,65
441,93	4744,28
442,05	3106,13
442,16	3670,41
442,28	3131,22
442,39	4108,59
442,51	5242,12
442,62	3780,24
442,74	5300,88
442,85	4100,91
442,97	7015,63
443,08	5193,31
443,20	5035,57
443,31	4660,67
443,43	3710,86
443,54	4770,95
443,66	3153,59
443,77	3572,34
443,88	3184,32
444,00	4391,75
444,11	5244,83
444,23	5991,03
444,34	3433,13
444,46	3455,50
444,57	5998,71
444,69	5565,05
444,80	4757,16
444,91	7842,73
445,03	3287,60
445,14	5393,76
445,26	3164,66
445,37	3352,45
445,49	4362,37
445,60	5866,51
445,71	6661,75
445,83	4199,44
445,94	3372,57
446,06	5449,12
446,17	3240,82
446,29	2903,65
446,40	4051,42
446,51	5624,48
446,63	4116,28
446,74	3572,56
446,86	3671,99
446,97	5725,73
447,08	3571,21
447,20	3863,63
447,31	3134,15
447,43	4173,68
447,54	4350,85
447,65	4965,07
447,77	3465,22
447,88	4018,88
448,00	4521,01
448,11	3089,64
448,22	3624,76
448,34	4493,67
448,45	3016,64
448,56	3917,19
448,68	4595,59
448,79	5878,72
448,90	4865,18
449,02	3869,95
449,13	3748,15
449,25	4653,21
449,36	3680,36
449,47	3870,63
449,59	6125,04
449,70	4290,96
449,81	3643,29
449,93	4009,84
450,04	3725,55
450,15	3862,27
450,27	4009,16
450,38	4781,12
450,49	3750,18
450,61	6538,36
450,72	3990,63
450,83	5176,36
450,95	3827,24
451,06	4753,32
451,17	6517,57
451,29	5106,76
451,40	3563,07
451,51	3103,20
451,63	3256,64
451,74	5547,42
451,85	3859,33
451,97	5271,05
452,08	4242,60
452,19	3449,40
452,31	5938,37
452,42	4130,96
452,53	6306,27
452,65	5675,56
452,76	3223,19
452,87	3284,43
452,98	3440,36
453,10	3969,61
453,21	3269,07
453,32	3685,78
453,44	3312,23
453,55	2986,59
453,66	7781,49
453,77	4829,25
453,89	5065,18
454,00	6439,15
454,11	4423,61
454,23	4232,43
454,34	4281,70
454,45	3079,24
454,56	4831,96
454,68	6970,21
454,79	4117,63
454,90	4501,80
455,01	3303,19
455,13	3097,77
455,24	6210,01
455,35	3564,88
455,46	2765,13
455,58	3025,23
455,69	5835,33
455,80	4755,36
455,91	3146,81
456,03	3988,60
456,14	5204,16
456,25	3436,29
456,36	3227,49
456,48	3867,24
456,59	5876,00
456,70	3469,29
456,81	5579,06
456,92	6663,55
457,04	5165,06
457,15	7746,01
457,26	3164,21
457,37	3912,67
457,49	3497,54
457,60	3114,49
457,71	4173,68
457,82	4859,76
457,93	4250,96
458,05	5564,15
458,16	3313,81
458,27	3836,06
458,38	4205,09
458,49	4877,39
458,61	3817,98
458,72	4365,99
458,83	3936,17
458,94	4908,80
459,05	4741,57
459,17	10838,13
459,28	3622,28
459,39	4004,41
459,50	3104,55
459,61	5346,98
459,72	3152,23
459,84	3298,67
459,95	4059,10
460,06	10540,97
460,17	3489,40
460,28	3874,02
460,39	3949,95
460,51	4603,95
460,62	3978,20
460,73	3942,50
460,84	2768,06
460,95	6032,61
461,06	6499,49
461,18	5882,78
461,29	5743,58
461,40	4167,12
461,51	4625,87
461,62	8049,51
461,73	4022,04
461,84	4801,00
461,96	4657,28
462,07	5110,83
462,18	3579,57
462,29	4002,83
462,40	5347,20
462,51	3944,53
462,62	6022,44
462,73	6623,78
462,85	5055,91
462,96	4887,33
463,07	5414,32
463,18	7549,63
463,29	4987,89
463,40	3734,59
463,51	3207,15
463,62	3326,01
463,73	5209,81
463,85	3396,97
463,96	4276,95
464,07	4168,48
464,18	4013,00
464,29	3216,86
464,40	6204,58
464,51	4313,33
464,62	3874,47
464,73	3134,38
464,84	4909,02
464,95	3921,93
465,06	4012,78
465,18	2869,08
465,29	4409,60
465,40	3662,95
465,51	4005,09
465,62	5097,04
465,73	3966,68
465,84	4514,91
465,95	4602,36
466,06	3614,82
466,17	4120,12
466,28	3900,01
466,39	5503,13
466,50	3018,68
466,61	2598,35
466,72	4437,85
466,83	2989,98
466,95	3248,28
467,06	2826,59
467,17	3803,29
467,28	3408,50
467,39	3823,18
467,50	4721,46
467,61	2951,79
467,72	3051,45
467,83	3166,02
467,94	4313,11
468,05	3009,64
468,16	4466,78
468,27	4107,01
468,38	3075,63
468,49	5471,95
468,60	3209,18
468,71	5686,40
468,82	5328,22
468,93	5162,35
469,04	6250,01
469,15	3917,64
469,26	3537,76
469,37	3908,60
469,48	5662,68
469,59	4215,71
469,70	3119,69
469,81	3986,56
469,92	2724,90
470,03	4933,88
470,14	3137,32
470,25	5210,71
470,36	4101,81
470,47	2855,07
470,58	2917,89
470,69	4994,44
470,80	5105,40
470,91	3295,28
471,02	3544,31
471,13	4253,67
471,24	4267,23
471,35	3543,18
471,46	6144,25
471,56	5243,93
471,67	5481,44
471,78	5907,87
471,89	2735,97
472,00	3333,25
472,11	4756,71
472,22	5338,84
472,33	3864,76
472,44	4216,84
472,55	3437,20
472,66	3940,91
472,77	3700,92
472,88	7303,99
472,99	5374,77
473,10	2853,48
473,21	3613,01
473,32	3714,48
473,42	3017,10
473,53	3234,49
473,64	4345,87
473,75	4525,30
473,86	4140,00
473,97	4547,90
474,08	4482,82
474,19	5337,49
474,30	7251,79
474,41	4655,70
474,52	3546,35
474,62	4178,42
474,73	3360,82
474,84	6876,66
474,95	4778,18
475,06	4851,85
475,17	3189,52
475,28	2706,14
475,39	4007,35
475,50	3152,23
475,60	2983,20
475,71	3138,00
475,82	5249,81
475,93	3248,95
476,04	5782,22
476,15	3786,12
476,26	4514,91
476,37	3465,22
476,47	3528,95
476,58	3439,01
476,69	2759,02
476,80	2776,65
476,91	3732,78
477,02	4137,07
477,13	4041,93
477,23	3309,97
477,34	4167,57
477,45	4408,70
477,56	3581,15
477,67	3560,36
477,78	4106,11
477,89	3976,39
477,99	3491,21
478,10	4906,99
478,21	4485,98
478,32	4101,14
478,43	3577,53
478,54	6772,25
478,64	4459,32
478,75	3973,45
478,86	3380,25
478,97	3914,02
479,08	3691,43
479,18	3347,93
479,29	3537,53
479,40	3044,89
479,51	2636,54
479,62	3344,54
479,72	3395,39
479,83	2858,23
479,94	4425,87
480,05	4416,38
480,16	3152,46
480,26	4315,59
480,37	3073,82
480,48	4953,77
480,59	3926,90
480,70	4022,04
480,80	3735,50
480,91	3175,96
481,02	2880,83
481,13	4216,39
481,24	4023,62
481,34	3027,94
481,45	7006,37
481,56	3486,24
481,67	3585,89
481,77	3455,95
481,88	3357,43
481,99	4962,81
482,10	4358,76
482,20	10777,34
482,31	3575,50
482,42	4523,04
482,53	3353,13
482,63	5887,98
482,74	4912,87
482,85	3117,43
482,96	3269,74
483,06	2842,64
483,17	4574,12
483,28	3132,35
483,39	3844,87
483,49	4760,10
483,60	7470,99
483,71	3237,65
483,81	5088,45
483,92	3795,15
484,03	3777,98
484,14	3470,87
484,24	3060,03
484,35	3788,60
484,46	3955,15
484,57	3413,24
484,67	4449,15
484,78	3411,89
484,89	7184,44
484,99	3438,78
485,10	3803,06
485,21	4389,49
485,31	4369,15
485,42	4226,56
485,53	3387,26
485,63	3775,27
485,74	6205,26
485,85	8116,85
485,96	22653,42
486,06	4014,81
486,17	4016,84
486,28	4335,48
486,38	2812,58
486,49	5023,82
486,60	2985,46
486,70	3145,68
486,81	3507,03
486,92	3209,86
487,02	3269,74
487,13	2590,67
487,24	3465,90
487,34	3108,39
487,45	6199,16
487,56	3793,12
487,66	3071,56
487,77	4141,13
487,87	3416,41
487,98	2629,31
488,09	3654,59
488,19	2595,86
488,30	7432,12
488,41	3388,16
488,51	2772,13
488,62	3157,66
488,73	3178,67
488,83	3959,22
488,94	4541,80
489,04	6156,00
489,15	3222,06
489,26	2970,77
489,36	4225,20
489,47	3468,38
489,58	3030,65
489,68	4397,17
489,79	3120,60
489,89	3907,24
490,00	3430,42
490,11	4241,24
490,21	4242,83
490,32	2984,55
490,42	3825,21
490,53	3986,79
490,64	2912,47
490,74	3072,69
490,85	2851,90
490,95	4798,52
491,06	4337,06
491,16	3182,52
491,27	4408,02
491,38	3368,50
491,48	6907,39
491,59	7511,89
491,69	4414,12
491,80	2737,78
491,90	5779,06
492,01	2881,73
492,12	4656,37
492,22	3443,30
492,33	5273,31
492,43	3901,59
492,54	2893,94
492,64	3067,26
492,75	3926,90
492,86	4123,73
492,96	3603,97
493,07	3211,67
493,17	4151,30
493,28	4681,91
493,38	4192,21
493,49	3266,13
493,59	4493,44
493,70	4030,63
493,80	3158,79
493,91	2872,92
494,01	3136,41
494,12	3297,31
494,22	5192,18
494,33	6045,94
494,43	5742,22
494,54	6382,88
494,64	4482,37
494,75	3156,53
494,86	5317,60
494,96	3102,07
495,07	3621,60
495,17	5580,19
495,28	3549,29
495,38	3158,34
495,49	3768,49
495,59	4370,96
495,69	3796,96
495,80	5726,86
495,90	3536,63
496,01	2884,90
496,11	4232,43
496,22	3511,55
496,32	2942,97
496,43	4879,87
496,53	3447,59
496,64	3571,43
496,74	4116,50
496,85	4670,16
496,95	4020,46
497,06	3313,81
497,16	4314,69
497,27	3694,82
497,37	5472,85
497,48	2920,83
497,58	2983,65
497,68	3372,57
497,79	5076,25
497,89	3371,44
498,00	3871,76
498,10	2824,11
498,21	5143,59
498,31	3368,50
498,42	3200,37
498,52	5285,06
498,62	3795,15
498,73	3865,44
498,83	4437,40
498,94	3280,82
499,04	5337,26
499,15	3518,55
499,25	2991,33
499,35	4735,47
499,46	6178,37
499,56	7116,88
499,67	4635,81
499,77	2667,27
499,87	3003,31
499,98	3192,01
500,08	2479,26
500,19	3346,80
500,29	3781,37
500,39	4371,86
500,50	5035,80
500,60	3791,76
500,71	3839,22
500,81	3964,64
500,91	2862,07
501,02	3400,14
501,12	4464,52
501,22	2883,54
501,33	3974,58
501,43	4782,93
501,54	2756,31
501,64	3213,47
501,74	3330,53
501,85	5689,79
501,95	3100,03
502,05	3094,16
502,16	3462,28
502,26	5924,59
502,37	4637,39
502,47	4091,87
502,57	3576,63
502,68	3203,76
502,78	2960,37
502,88	5068,57
502,99	3607,81
503,09	5046,42
503,19	2956,53
503,30	2720,61
503,40	3048,06
503,50	3326,47
503,61	3734,37
503,71	3470,42
503,81	3519,91
503,92	3956,96
504,02	5100,20
504,12	8698,08
504,23	5476,01
504,33	3656,40
504,43	3528,04
504,54	4852,98
504,64	4705,19
504,74	8843,61
504,84	3990,86
504,95	3389,29
505,05	2478,13
505,15	5628,33
505,26	2839,25
505,36	3310,20
505,46	3246,69
505,56	4370,96
505,67	4430,39
505,77	4287,57
505,87	3001,50
505,98	2640,16
506,08	3281,04
506,18	3686,91
506,28	3995,38
506,39	3689,17
506,49	3353,58
506,59	3337,54
506,70	2837,44
506,80	4006,90
506,90	6536,33
507,00	2596,09
507,11	3884,87
507,21	4995,12
507,31	4518,75
507,41	3815,49
507,52	3358,10
507,62	3612,56
507,72	5272,40
507,82	5125,06
507,93	3411,66
508,03	4947,21
508,13	4131,42
508,23	3689,62
508,34	4133,00
508,44	2988,40
508,54	3043,76
508,64	3819,56
508,74	2656,20
508,85	3233,36
508,95	3623,41
509,05	2786,59
509,15	3416,63
509,26	4179,33
509,36	2977,77
509,46	3882,16
509,56	2819,36
509,66	3651,88
509,77	3027,49
509,87	3363,75
509,97	3635,84
510,07	3848,03
510,17	2495,30
510,28	7506,70
510,38	4914,90
510,48	3343,19
510,58	4318,30
510,68	3838,77
510,78	3797,41
510,89	3266,58
510,99	2595,19
511,09	4788,80
511,19	4532,54
511,29	2775,52
511,39	5032,41
511,50	5228,11
511,60	2801,51
511,70	4547,90
511,80	4876,03
511,90	5214,33
512,00	3652,79
512,11	3010,99
512,21	3903,63
512,31	2741,17
512,41	5844,82
512,51	3957,64
512,61	7079,14
512,71	3171,44
512,82	3227,71
512,92	2453,49
513,02	4272,20
513,12	3427,71
513,22	3177,54
513,32	4773,66
513,42	4051,87
513,53	5081,67
513,63	4367,57
513,73	4704,28
513,83	2789,31
513,93	4316,27
514,03	4460,67
514,13	5798,27
514,23	3054,83
514,33	3418,44
514,44	3398,78
514,54	3265,22
514,64	6414,29
514,74	3393,81
514,84	3333,02
514,94	4702,48
515,04	4525,30
515,14	3971,42
515,24	4263,84
515,34	4006,00
515,44	2480,84
515,55	2453,72
515,65	4384,52
515,75	3183,42
515,85	3377,09
515,95	4503,61
516,05	5556,01
516,15	4156,27
516,25	2810,77
516,35	3061,61
516,45	3142,97
516,55	3051,22
516,65	3545,67
516,75	6704,00
516,85	4395,14
516,95	4778,86
517,05	5174,55
517,16	2779,81
517,26	7629,40
517,36	3161,50
517,46	2627,28
517,56	3975,26
517,66	3500,92
517,76	3150,20
517,86	3141,39
517,96	4288,70
518,06	2898,91
518,16	2975,51
518,26	4118,08
518,36	2897,32
518,46	3241,04
518,56	4622,03
518,66	4975,69
518,76	3733,69
518,86	4876,26
518,96	2916,53
519,06	3157,43
519,16	4276,72
519,26	3328,50
519,36	4235,59
519,46	3816,17
519,56	5555,11
519,66	6773,16
519,76	3078,34
519,86	3180,26
519,96	3914,25
520,06	3489,40
520,16	6235,54
520,26	4206,90
520,36	3221,38
520,46	3215,51
520,56	3092,80
520,66	3383,19
520,76	3089,41
520,86	3412,79
520,96	5309,01
521,06	4273,56
521,16	2862,07
521,26	3456,86
521,35	4334,35
521,45	2671,57
521,55	3263,19
521,65	4285,31
521,75	3180,93
521,85	2476,32
521,95	3615,27
522,05	2608,74
522,15	2860,72
522,25	23855,42
522,35	5036,48
522,45	3331,21
522,55	4680,10
522,65	3653,46
522,75	2920,60
522,85	3146,58
522,94	3397,88
523,04	4440,56
523,14	3887,58
523,24	2821,17
523,34	2971,90
523,44	3817,75
523,54	3033,37
523,64	2862,75
523,74	5739,96
523,84	4455,93
523,94	4153,56
524,03	2648,74
524,13	4006,45
524,23	4034,47
524,33	2916,08
524,43	3437,88
524,53	3670,19
524,63	3063,87
524,73	3437,88
524,83	2753,37
524,92	3454,82
525,02	2616,65
525,12	4655,02
525,22	3742,73
525,32	2874,50
525,42	5148,11
525,52	3787,02
525,61	4250,96
525,71	2548,86
525,81	4147,69
525,91	2883,77
526,01	3857,30
526,11	3969,16
526,21	4700,67
526,30	4166,22
526,40	3202,85
526,50	4186,10
526,60	4637,17
526,70	4561,46
526,80	4403,05
526,89	3408,50
526,99	3029,75
527,09	3951,53
527,19	4134,58
527,29	4674,68
527,39	3697,53
527,48	4222,71
527,58	4149,72
527,68	2821,17
527,78	5399,18
527,88	6773,38
527,97	3662,05
528,07	2976,87
528,17	5059,30
528,27	5288,90
528,37	3575,95
528,46	3090,31
528,56	6125,04
528,66	4627,90
528,76	2744,33
528,86	4903,37
528,95	2972,35
529,05	3858,43
529,15	3923,96
529,25	4767,78
529,35	4926,20
529,44	4557,62
529,54	5658,38
529,64	4459,09
529,74	3528,95
529,83	2945,69
529,93	3356,97
530,03	4205,99
530,13	3860,46
530,22	5398,05
530,32	5213,42
530,42	4797,16
530,52	2485,81
530,61	4864,73
530,71	2818,23
530,81	4810,49
530,91	3560,36
531,00	3475,84
531,10	3397,65
531,20	4236,95
531,30	3496,86
531,39	3787,02
531,49	3608,72
531,59	8455,82
531,69	6492,26
531,78	5232,63
531,88	6588,08
531,98	6957,11
532,07	5283,70
532,17	6254,52
532,27	6584,01
532,37	4634,91
532,46	4728,92
532,56	4147,46
532,66	2885,57
532,75	3653,46
532,85	4006,90
532,95	3689,85
533,04	3717,19
533,14	4085,54
533,24	4583,38
533,34	3311,55
533,43	4654,34
533,53	2593,60
533,63	4315,37
533,72	3503,64
533,82	2980,94
533,92	2933,48
534,01	7797,31
534,11	8677,96
534,21	4529,82
534,30	3410,53
534,40	3648,72
534,50	2664,11
534,59	3319,46
534,69	2966,25
534,79	3970,29
534,88	5720,75
534,98	5087,78
535,08	2446,04
535,17	4577,05
535,27	3425,90
535,36	3072,01
535,46	4275,37
535,56	2785,69
535,65	4323,05
535,75	4891,85
535,85	4030,40
535,94	3256,41
536,04	3679,90
536,14	4583,83
536,23	5688,89
536,33	3270,65
536,42	3997,63
536,52	3458,67
536,62	2615,52
536,71	4141,36
536,81	3793,12
536,90	3803,52
537,00	3978,65
537,10	3086,25
537,19	3818,43
537,29	4392,88
537,38	5190,82
537,48	3747,02
537,58	3725,55
537,67	3024,55
537,77	3467,71
537,86	3289,18
537,96	5380,20
538,06	3529,40
538,15	2911,11
538,25	6463,33
538,34	7261,50
538,44	6548,08
538,53	4380,90
538,63	5418,39
538,73	4627,00
538,82	3741,37
538,92	3503,64
539,01	6700,84
539,11	2829,53
539,20	7178,57
539,30	4408,25
539,39	3243,76
539,49	4361,24
539,59	4562,59
539,68	7488,16
539,78	7217,21
539,87	4537,96
539,97	4733,89
540,06	4765,52
540,16	3040,15
540,25	4495,93
540,35	6065,83
540,44	4674,23
540,54	6343,79
540,63	4196,05
540,73	3446,46
540,82	4710,38
540,92	3341,16
541,01	5351,50
541,11	5664,03
541,20	4170,74
541,30	4220,91
541,39	4755,58
541,49	4236,95
541,58	6226,28
541,68	5902,90
541,77	4304,97
541,87	2924,89
541,96	2851,22
542,06	5077,61
542,15	4424,74
542,25	6286,84
542,34	5073,76
542,44	3325,79
542,53	3856,62
542,63	4497,28
542,72	3489,40
542,82	3384,32
542,91	4018,20
543,01	3236,75
543,10	4951,73
543,20	3949,73
543,29	4391,75
543,38	3182,29
543,48	3782,95
543,57	3480,13
543,67	3438,78
543,76	3695,50
543,86	3600,81
543,95	4589,03
544,05	6613,16
544,14	7570,42
544,23	4106,56
544,33	3505,44
544,42	4809,59
544,52	3622,05
544,61	4229,72
544,71	6218,14
544,80	6987,39
544,89	6168,20
544,99	4669,48
545,08	5911,03
545,18	3071,33
545,27	8054,25
545,36	6451,81
545,46	5195,80
545,55	4075,37
545,65	4399,88
545,74	3861,37
545,84	3172,57
545,93	4424,52
546,02	3923,51
546,12	5439,86
546,21	5209,81
546,30	4435,82
546,40	4645,98
546,49	3448,95
546,59	4567,56
546,68	3652,11
546,77	5506,52
546,87	4542,93
546,96	5475,34
547,05	4788,12
547,15	3426,35
547,24	4112,66
547,34	3481,72
547,43	4227,91
547,52	5670,59
547,62	4767,11
547,71	5083,93
547,80	4979,30
547,90	4086,22
547,99	6765,25
548,08	4671,29
548,18	2785,01
548,27	3262,97
548,36	3186,13
548,46	3532,56
548,55	3417,54
548,64	4372,77
548,74	3288,28
548,83	4326,21
548,92	6764,57
549,02	3407,82
549,11	8026,68
549,20	5063,37
549,30	3697,76
549,39	4293,45
549,48	4596,49
549,58	3097,77
549,67	4806,88
549,76	4196,27
549,85	3075,40
549,95	3946,34
550,04	5178,17
550,13	3011,67
550,23	4952,41
550,32	3344,77
550,41	3192,91
550,50	4581,80
550,60	6478,70
550,69	4085,32
550,78	2911,11
550,88	5262,46
550,97	5027,44
551,06	4005,32
551,15	4199,89
551,25	6307,63
551,34	3192,91
551,43	3856,62
551,52	4653,89
551,62	5477,37
551,71	5685,95
551,80	5414,55
551,89	4450,28
551,99	3961,48
552,08	4087,80
552,17	3576,63
552,26	4780,67
552,36	2925,57
552,45	3099,58
552,54	2940,94
552,63	4827,22
552,73	7115,75
552,82	6875,75
552,91	4427,91
553,00	8435,48
553,10	4412,54
553,19	6955,52
553,28	3813,23
553,37	5404,83
553,46	3302,06
553,56	5373,42
553,65	3365,56
553,74	3129,41
553,83	4768,91
553,92	4066,56
554,02	4673,10
554,11	4012,78
554,20	3153,59
554,29	6750,33
554,38	3775,27
554,48	4073,79
554,57	3530,75
554,66	3752,90
554,75	4987,44
554,84	5115,35
554,94	4607,79
555,03	3568,72
555,12	3055,74
555,21	3209,86
555,30	7201,39
555,39	3351,78
555,49	3652,11
555,58	4733,66
555,67	5258,84
555,76	5770,24
555,85	3307,26
555,94	3288,73
556,03	3919,67
556,13	4243,05
556,22	3988,37
556,31	4400,34
556,40	2985,91
556,49	5626,29
556,58	4144,30
556,67	4173,22
556,77	3785,66
556,86	6393,50
556,95	5252,74
557,04	6779,03
557,13	7039,14
557,22	6121,87
557,31	4696,60
557,40	4168,48
557,50	6495,20
557,59	3494,82
557,68	3533,69
557,77	5990,35
557,86	4658,18
557,95	4449,15
558,04	4202,83
558,13	4100,01
558,22	4757,39
558,31	4008,26
558,41	3431,55
558,50	5260,88
558,59	5434,89
558,68	5969,11
558,77	5523,24
558,86	3130,09
558,95	3007,38
559,04	4582,48
559,13	6107,64
559,22	3589,74
559,31	3945,66
559,40	3466,35
559,49	3729,85
559,59	5422,91
559,68	3017,55
559,77	6557,12
559,86	7209,08
559,95	4492,31
560,04	4121,47
560,13	4849,82
560,22	7779,46
560,31	4856,82
560,40	4731,18
560,49	3023,20
560,58	3753,57
560,67	3255,73
560,76	3256,64
560,85	2814,62
560,94	6047,07
561,03	3601,49
561,12	9616,02
561,21	8230,29
561,30	4281,47
561,39	4162,83
561,48	4408,25
561,57	3067,26
561,66	5130,03
561,75	7145,57
561,84	3870,86
561,93	3894,81
562,02	4090,29
562,11	3225,68
562,20	3498,21
562,29	4334,58
562,38	2825,24
562,47	5641,21
562,56	4596,94
562,65	3689,85
562,74	4107,24
562,83	9320,88
562,92	5015,24
563,01	6606,38
563,10	3257,99
563,19	4435,14
563,28	10219,39
563,37	6040,52
563,46	3200,82
563,55	3865,44
563,64	9132,19
563,73	3272,00
563,82	4930,94
563,91	7099,47
564,00	4351,52
564,09	3289,41
564,18	4510,62
564,27	3015,29
564,35	4949,70
564,44	4304,29
564,53	5535,67
564,62	5332,74
564,71	4747,45
564,80	4779,31
564,89	5092,52
564,98	21464,07
565,07	5217,49
565,16	3326,69
565,25	13098,64
565,34	3910,18
565,43	3956,05
565,51	3498,44
565,60	6750,10
565,69	3722,16
565,78	7047,95
565,87	2823,65
565,96	2494,85
566,05	5178,62
566,14	6387,63
566,23	4940,66
566,32	6812,70
566,40	5723,69
566,49	6857,45
566,58	3740,47
566,67	4309,94
566,76	3467,03
566,85	3720,35
566,94	4555,81
567,03	5253,20
567,11	4023,62
567,20	4120,80
567,29	6342,66
567,38	5195,12
567,47	3110,65
567,56	4373,90
567,65	4554,23
567,73	3269,52
567,82	3241,50
567,91	4959,87
568,00	4279,44
568,09	5513,08
568,18	3529,17
568,27	4185,88
568,35	4607,34
568,44	5440,31
568,53	4853,88
568,62	3384,32
568,71	3215,06
568,80	3669,06
568,88	5565,73
568,97	6586,49
569,06	3186,81
569,15	3723,07
569,24	4992,41
569,32	5338,16
569,41	4420,00
569,50	3115,85
569,59	2908,85
569,68	3175,74
569,76	4266,10
569,85	5147,66
569,94	6088,88
570,03	3474,48
570,12	5257,26
570,20	4355,37
570,29	5119,64
570,38	4859,31
570,47	4819,76
570,56	3028,62
570,64	3891,42
570,73	4047,35
570,82	6777,45
570,91	5643,47
570,99	3216,86
571,08	3045,34
571,17	3614,59
571,26	6089,78
571,34	3611,66
571,43	4723,04
571,52	5050,04
571,61	3267,94
571,69	3186,58
571,78	5560,98
571,87	6038,03
571,96	5772,96
572,04	5512,85
572,13	5533,87
572,22	3413,24
572,31	3137,54
572,39	3380,93
572,48	4587,00
572,57	3818,66
572,66	3442,62
572,74	2861,39
572,83	4856,60
572,92	3873,12
573,00	3115,40
573,09	5081,00
573,18	5690,25
573,27	5129,36
573,35	3441,04
573,44	3055,74
573,53	4135,26
573,61	4206,90
573,70	5026,53
573,79	3454,82
573,87	7492,23
573,96	3601,71
574,05	4075,83
574,14	4058,42
574,22	3535,73
574,31	5424,49
574,40	3001,28
574,48	4307,46
574,57	4543,61
574,66	3980,46
574,74	4140,68
574,83	6001,88
574,92	6062,21
575,00	3950,40
575,09	5871,48
575,18	3719,68
575,26	6698,35
575,35	3675,84
575,43	3819,79
575,52	5368,90
575,61	4921,00
575,69	5577,71
575,78	3641,71
575,87	7741,94
575,95	5052,52
576,04	3542,51
576,13	4716,49
576,21	3751,77
576,30	4768,01
576,38	4624,29
576,47	3855,72
576,56	3726,68
576,64	4108,59
576,73	5674,88
576,82	5274,44
576,90	4497,06
576,99	4601,23
577,07	3871,08
577,16	4093,90
577,25	5140,66
577,33	8071,65
577,42	4654,79
577,50	3637,87
577,59	5103,37
577,68	6212,04
577,76	4407,79
577,85	4187,69
577,93	4644,40
578,02	4783,38
578,10	4637,39
578,19	4603,27
578,28	3962,16
578,36	4235,82
578,45	4525,53
578,53	3338,67
578,62	3741,14
578,70	3552,00
578,79	4123,28
578,88	4462,26
578,96	3441,72
579,05	3505,67
579,13	7458,11
579,22	4990,60
579,30	3975,94
579,39	5155,12
579,47	6982,64
579,56	3893,68
579,64	11987,93
579,73	4273,56
579,82	5071,51
579,90	3585,44
579,99	3748,60
580,07	5068,57
580,16	4577,73
580,24	5644,60
580,33	2940,04
580,41	4636,49
580,50	3274,94
580,58	4313,56
580,67	4022,04
580,75	4281,92
580,84	4268,36
580,92	3272,00
581,01	7092,92
581,09	3519,23
581,18	4051,64
581,26	3595,16
581,35	3130,31
581,43	5539,52
581,52	4285,54
581,60	4862,47
581,69	4210,51
581,77	4701,12
581,86	4885,97
581,94	4057,97
582,02	5795,10
582,11	3269,07
582,19	6491,13
582,28	7856,74
582,36	7448,39
582,45	7558,67
582,53	3654,82
582,62	3725,55
582,70	3536,86
582,79	5013,65
582,87	3453,47
582,96	4880,32
583,04	6646,15
583,12	4779,08
583,21	4593,10
583,29	4960,10
583,38	4986,76
583,46	4217,52
583,55	4644,62
583,63	3312,91
583,71	5081,90
583,80	4510,16
583,88	3297,99
583,97	8660,79
584,05	5088,45
584,13	5674,88
584,22	5316,70
584,30	3988,37
584,39	5452,29
584,47	5844,37
584,55	3626,57
584,64	4704,28
584,72	4634,91
584,81	3234,04
584,89	3577,76
584,97	3522,39
585,06	3423,86
585,14	4401,01
585,23	4844,62
585,31	3114,04
585,39	4067,69
585,48	4723,72
585,56	3193,14
585,64	4948,12
585,73	4423,84
585,81	4328,47
585,90	5436,92
585,98	3979,56
586,06	4171,19
586,15	6591,69
586,23	3166,92
586,31	3664,76
586,40	3308,84
586,48	6215,43
586,56	3634,03
586,65	3172,57
586,73	3495,50
586,81	5170,94
586,90	4064,98
586,98	3076,53
587,06	3132,35
587,15	4085,09
587,23	3966,90
587,31	4335,48
587,40	3643,75
587,48	3282,17
587,56	6015,21
587,65	8659,21
587,73	5440,76
587,81	4794,00
587,90	7366,59
587,98	4480,79
588,06	3619,34
588,14	3497,99
588,23	3866,56
588,31	6534,97
588,39	5353,08
588,48	4168,03
588,56	3650,07
588,64	4936,82
588,72	4712,64
588,81	3868,60
588,89	4196,50
588,97	4389,72
589,06	6266,95
589,14	6111,25
589,22	4776,15
589,30	4143,85
589,39	3667,25
589,47	5395,56
589,55	7104,22
589,63	4691,85
589,72	3959,44
589,80	3816,17
589,88	5044,61
589,96	5648,44
590,05	4594,23
590,13	4664,28
590,21	5938,60
590,29	6607,96
590,38	5410,03
590,46	6215,20
590,54	3284,89
590,62	3687,81
590,71	5853,86
590,79	6214,75
590,87	3170,09
590,95	3425,22
591,03	4096,16
591,12	4683,72
591,20	3916,73
591,28	7163,43
591,36	4987,67
591,44	4158,53
591,53	4394,01
591,61	4271,98
591,69	3598,10
591,77	4653,66
591,85	4643,27
591,94	3616,85
592,02	3860,92
592,10	5610,47
592,18	5510,36
592,26	4312,65
592,34	3385,00
592,43	3041,50
592,51	3250,08
592,59	3641,03
592,67	5297,94
592,75	3765,78
592,84	4182,04
592,92	5761,43
593,00	3855,94
593,08	3969,61
593,16	3348,16
593,24	3762,61
593,32	5371,84
593,41	4490,05
593,49	3177,54
593,57	3748,38
593,65	3626,12
593,73	4782,02
593,81	4974,33
593,89	5776,12
593,98	4115,15
594,06	3466,80
594,14	3483,75
594,22	3736,85
594,30	3722,61
594,38	4095,71
594,46	5791,03
594,54	5605,95
594,62	5417,48
594,71	4151,98
594,79	3660,69
594,87	4171,19
594,95	4236,05
595,03	5824,71
595,11	4319,43
595,19	6864,68
595,27	4138,42
595,35	3633,35
595,43	3619,34
595,52	3830,63
595,60	3979,10
595,68	7448,17
595,76	3398,55
595,84	5165,97
595,92	3455,28
596,00	6312,60
596,08	5771,60
596,16	4454,80
596,24	4210,74
596,32	3888,49
596,40	5069,47
596,48	5005,74
596,56	4961,23
596,64	3392,45
596,73	6328,65
596,81	3707,02
596,89	4741,34
596,97	3065,23
597,05	9593,19
597,13	4044,87
597,21	3154,04
597,29	3958,77
597,37	6026,28
597,45	4930,27
597,53	3635,61
597,61	4581,35
597,69	5233,08
597,77	4103,39
597,85	3705,44
597,93	4379,55
598,01	3998,99
598,09	5409,35
598,17	4243,28
598,25	4468,58
598,33	3156,08
598,41	3941,14
598,49	3140,03
598,57	3518,55
598,65	4054,58
598,73	4311,07
598,81	4701,35
598,89	4080,80
598,97	3369,63
599,05	6185,37
599,13	3942,72
599,21	3472,68
599,29	4405,99
599,37	3984,75
599,45	3632,22
599,53	6628,30
599,61	3607,59
599,69	4831,29
599,77	4059,10
599,85	3527,59
599,93	3864,76
600,00	3270,65
600,08	5009,13
600,16	2925,12
600,24	3264,55
600,32	6554,18
600,40	7190,77
600,48	6153,28
600,56	5808,89
600,64	5801,43
600,72	4130,06
600,80	4344,74
600,88	4108,14
600,96	5898,60
601,04	3248,50
601,12	3554,93
601,19	2798,57
601,27	3755,16
601,35	4261,81
601,43	3522,39
601,51	4526,21
601,59	3598,78
601,67	3199,69
601,75	3693,91
601,83	4383,61
601,91	3057,55
601,98	3283,98
602,06	5653,64
602,14	4532,76
602,22	4864,50
602,30	5388,11
602,38	4460,22
602,46	3346,35
602,54	5735,67
602,61	4809,82
602,69	4589,26
602,77	3053,71
602,85	3322,62
602,93	3360,14
603,01	4308,81
603,09	5782,90
603,17	3826,79
603,24	4795,13
603,32	3128,05
603,40	4293,45
603,48	4983,82
603,56	2988,85
603,64	4274,69
603,71	3397,20
603,79	4127,12
603,87	5260,65
603,95	8060,58
604,03	3960,80
604,11	5697,70
604,18	4604,85
604,26	3549,51
604,34	3042,41
604,42	4528,02
604,50	3414,37
604,57	3412,34
604,65	4006,67
604,73	4110,85
604,81	4481,01
604,89	3328,05
604,96	3834,25
605,04	4851,17
605,12	3881,25
605,20	5276,92
605,28	6338,36
605,35	4358,30
605,43	4443,27
605,51	3832,44
605,59	5332,06
605,67	7216,31
605,74	4065,20
605,82	4353,78
605,90	3314,72
605,98	5030,15
606,05	4133,22
606,13	4998,74
606,21	4340,45
606,29	3992,66
606,36	4172,09
606,44	3548,38
606,52	4310,85
606,60	3975,49
606,67	2997,66
606,75	3657,98
606,83	2815,07
606,91	5372,06
606,98	3391,32
607,06	4151,08
607,14	3872,21
607,22	3805,10
607,29	3467,71
607,37	4213,45
607,45	4786,31
607,52	5177,94
607,60	5101,33
607,68	4066,79
607,76	4784,73
607,83	2848,29
607,91	4906,76
607,99	4641,69
608,06	4502,25
608,14	3692,56
608,22	4038,31
608,30	6043,46
608,37	3227,03
608,45	2691,91
608,53	4387,46
608,60	4464,06
608,68	3460,47
608,76	3819,79
608,83	5138,62
608,91	3228,16
608,99	5149,24
609,06	4512,20
609,14	5000,09
609,22	3933,68
609,29	3472,23
609,37	3033,82
609,45	5544,26
609,52	3307,03
609,60	3317,65
609,68	3469,97
609,75	4129,83
609,83	2786,82
609,91	7087,27
609,98	3781,60
610,06	3576,86
610,13	4843,94
610,21	4302,71
610,29	4297,97
610,36	2901,84
610,44	3514,03
610,52	4009,84
610,59	3228,39
610,67	3122,40
610,74	4081,47
610,82	3381,38
610,90	4601,91
610,97	3665,89
611,05	4803,72
611,13	4342,03
611,20	6408,87
611,28	3345,22
611,35	4036,28
611,43	2832,02
611,51	4578,64
611,58	4320,79
611,66	6096,34
611,73	3304,32
611,81	5934,31
611,88	4504,29
611,96	5129,81
612,04	3245,34
612,11	3138,67
612,19	6479,38
612,26	3746,79
612,34	4150,40
612,41	3876,06
612,49	2702,08
612,57	2818,00
612,64	3143,42
612,72	5902,44
612,79	7246,36
612,87	2845,57
612,94	2723,09
613,02	4168,25
613,09	3799,22
613,17	4731,85
613,24	3626,12
613,32	5206,19
613,40	3553,80
613,47	3842,84
613,55	3064,33
613,62	5436,92
613,70	5688,89
613,77	3361,27
613,85	5392,85
613,92	3802,84
614,00	3032,24
614,07	3602,62
614,15	2746,82
614,22	3028,62
614,30	4491,18
614,37	2934,39
614,45	3571,43
614,52	3220,25
614,60	3686,91
614,67	5030,83
614,75	2754,50
614,82	4708,58
614,90	3456,18
614,97	3063,65
615,05	6259,27
615,12	5186,98
615,20	4046,45
615,27	4006,45
615,34	3905,66
615,42	3119,92
615,49	3898,43
615,57	2907,27
615,64	3207,37
615,72	3411,44
615,79	3382,74
615,87	4460,22
615,94	5659,51
616,02	4259,78
616,09	5520,31
616,16	4481,69
616,24	4061,81
616,31	2994,27
616,39	6859,03
616,46	5456,81
616,54	4269,72
616,61	6525,03
616,68	3091,67
616,76	3794,48
616,83	4594,00
616,91	3356,30
616,98	3200,82
617,06	5351,27
617,13	3262,06
617,20	3458,44
617,28	3884,87
617,35	2991,56
617,43	5552,85
617,50	3451,43
617,57	3829,28
>>>>>End Processed Spectral Data<<<<<
