SpectraSuite Datei
++++++++++++++++++++++++++++++++++++
Datum: Sun Jan 04 05:47:01 CET 2004
Benutzer: H. Stützler
Dark-Spektrum vorhanden: Nein
Referenz-Spektrum vorhanden: Nein
Zahl der probierten Teilspektren: 1
Spektrometer: USB2+H04734
Integrationszeit (usec): 1000000 (USB2+H04734)
Spektren Durchschnitt berechnet: 10 (USB2+H04734)
Boxcar Glättung: 0 (USB2+H04734)
Dunkelstromkorrektur: Nein (USB2+H04734)
Puls/Lampe aktiviert: Nein (USB2+H04734)
Correct for Detector Non-linearity: Nein (USB2+H04734)
Streulichtkorrektur: Nein (USB2+H04734)
Anzahl Pixel in verarbeitetem Spektrum: 2048
>>>>>Begin Processed Spectral Data<<<<<
418,45	1234,09
418,57	1234,09
418,69	1234,09
418,80	1168,78
418,92	1121,78
419,04	1330,81
419,16	1218,95
419,28	1197,03
419,40	1178,27
419,52	1207,20
419,64	1185,73
419,75	1213,08
419,87	1204,04
419,99	1174,88
420,11	1194,54
420,23	1241,55
420,35	1254,88
420,47	1262,79
420,58	1237,93
420,70	1294,88
420,82	1287,42
420,94	1333,98
421,06	1386,63
421,18	1330,36
421,29	1306,18
421,41	1318,16
421,53	1331,94
421,65	1387,99
421,77	1395,44
421,89	1359,96
422,00	1427,08
422,12	1359,29
422,24	1369,68
422,36	1422,79
422,48	1426,63
422,59	1390,92
422,71	1419,62
422,83	1365,61
422,95	1379,40
423,07	1442,90
423,18	1465,50
423,30	1438,61
423,42	1379,40
423,54	1417,36
423,66	1399,06
423,77	1408,78
423,89	1388,89
424,01	1365,84
424,13	1367,87
424,25	1383,47
424,36	1408,32
424,48	1431,15
424,60	1398,83
424,72	1466,40
424,84	1385,73
424,95	1457,59
425,07	1392,51
425,19	1402,22
425,31	1422,79
425,42	1355,44
425,54	1413,07
425,66	1398,61
425,78	1370,81
425,89	1405,39
426,01	1367,20
426,13	1374,88
426,25	1431,15
426,36	1376,01
426,48	1396,80
426,60	1418,04
426,72	1384,14
426,83	1432,96
426,95	1418,27
427,07	1376,01
427,19	1472,28
427,30	1386,86
427,42	1336,24
427,54	1359,29
427,66	1363,58
427,77	1355,67
427,89	1403,58
428,01	1407,42
428,12	1413,07
428,24	1356,35
428,36	1377,59
428,48	1367,65
428,59	1366,97
428,71	1381,66
428,83	1337,14
428,94	1371,94
429,06	1345,73
429,18	1417,14
429,30	1388,89
429,41	1399,51
429,53	1444,93
429,65	1435,22
429,76	1422,56
429,88	1389,79
430,00	1434,09
430,11	1435,22
430,23	1391,83
430,35	1477,25
430,47	1364,71
430,58	1340,98
430,70	1413,52
430,82	1410,58
430,93	1531,71
431,05	1414,65
431,17	1393,64
431,28	1435,44
431,40	1384,14
431,52	1470,92
431,63	1369,46
431,75	1365,61
431,87	1390,70
431,98	1426,86
432,10	1388,66
432,22	1377,36
432,33	1424,37
432,45	1375,33
432,56	1413,30
432,68	1412,62
432,80	1378,04
432,91	1457,59
433,03	1401,55
433,15	1444,48
433,26	1398,16
433,38	1365,16
433,50	1351,83
433,61	1422,79
433,73	1485,38
433,84	1397,93
433,96	1364,71
434,08	1394,54
434,19	1388,21
434,31	1382,11
434,43	1400,64
434,54	1392,51
434,66	1348,89
434,77	1343,69
434,89	1426,63
435,01	1404,48
435,12	1356,12
435,24	1383,01
435,35	1378,72
435,47	1500,75
435,59	1381,21
435,70	1368,10
435,82	1396,35
435,93	1462,56
436,05	1392,51
436,17	1375,11
436,28	1403,35
436,40	1415,33
436,51	1352,28
436,63	1394,09
436,74	1441,32
436,86	1479,06
436,98	1658,94
437,09	1398,61
437,21	1416,69
437,32	1345,05
437,44	1419,17
437,55	1390,25
437,67	1752,95
437,79	1528,55
437,90	1412,62
438,02	1361,77
438,13	2197,91
438,25	1489,23
438,36	1432,28
438,48	1424,37
438,59	1437,93
438,71	1402,67
438,83	1376,24
438,94	1372,85
439,06	1431,83
439,17	1423,92
439,29	1390,02
439,40	1417,36
439,52	1405,39
439,63	1421,21
439,75	1375,11
439,86	1369,23
439,98	1388,44
440,09	1453,52
440,21	1385,05
440,32	1399,51
440,44	1341,43
440,55	1394,54
440,67	1368,55
440,78	1442,90
440,90	1361,09
441,01	1392,51
441,13	1364,48
441,24	1397,48
441,36	1445,39
441,47	1358,83
441,59	1431,15
441,70	1356,12
441,82	1448,78
441,93	1406,74
442,05	1360,64
442,16	1381,66
442,28	1355,90
442,39	1401,09
442,51	1438,15
442,62	1389,12
442,74	1437,48
442,85	1380,08
442,97	1493,52
443,08	1433,86
443,20	1425,73
443,31	1381,88
443,43	1378,95
443,54	1414,43
443,66	1360,42
443,77	1368,10
443,88	1362,68
444,00	1391,83
444,11	1443,35
444,23	1466,18
444,34	1383,01
444,46	1354,54
444,57	1466,18
444,69	1454,43
444,80	1432,96
444,91	1525,84
445,03	1356,12
445,14	1419,17
445,26	1350,02
445,37	1352,51
445,49	1398,83
445,60	1447,87
445,71	1480,87
445,83	1391,15
445,94	1356,12
446,06	1440,19
446,17	1344,82
446,29	1336,46
446,40	1392,96
446,51	1446,52
446,63	1394,09
446,74	1383,69
446,86	1385,95
446,97	1465,50
447,08	1373,98
447,20	1400,42
447,31	1351,83
447,43	1410,13
447,54	1422,11
447,65	1439,74
447,77	1371,72
447,88	1401,09
448,00	1404,71
448,11	1331,04
448,22	1388,44
448,34	1398,61
448,45	1347,54
448,56	1382,79
448,68	1413,52
448,79	1438,15
448,90	1426,18
449,02	1394,77
449,13	1391,38
449,25	1402,22
449,36	1371,04
449,47	1374,65
449,59	1457,81
449,70	1390,02
449,81	1354,09
449,93	1400,64
450,04	1371,04
450,15	1387,31
450,27	1392,73
450,38	1412,39
450,49	1370,13
450,61	1477,02
450,72	1395,90
450,83	1438,15
450,95	1391,38
451,06	1409,23
451,17	1466,18
451,29	1412,62
451,40	1378,04
451,51	1341,66
451,63	1373,75
451,74	1440,64
451,85	1377,59
451,97	1439,28
452,08	1399,74
452,19	1373,07
452,31	1445,61
452,42	1399,51
452,53	1467,31
452,65	1452,17
452,76	1360,19
452,87	1366,74
452,98	1379,85
453,10	1382,34
453,21	1353,86
453,32	1383,24
453,44	1350,92
453,55	1353,86
453,66	1506,63
453,77	1427,31
453,89	1416,69
454,00	1463,24
454,11	1413,75
454,23	1385,73
454,34	1396,57
454,45	1365,39
454,56	1413,52
454,68	1507,76
454,79	1377,36
454,90	1418,95
455,01	1349,57
455,13	1366,52
455,24	1479,06
455,35	1388,89
455,46	1341,21
455,58	1362,45
455,69	1456,46
455,80	1427,99
455,91	1347,54
456,03	1397,93
456,14	1428,44
456,25	1374,65
456,36	1357,48
456,48	1385,05
456,59	1449,45
456,70	1380,53
456,81	1456,91
456,92	1493,07
457,04	1433,41
457,15	1521,54
457,26	1368,10
457,37	1375,33
457,49	1379,17
457,60	1394,54
457,71	1408,78
457,82	1411,94
457,93	1397,03
458,05	1439,51
458,16	1379,62
458,27	1382,79
458,38	1376,69
458,49	1430,02
458,61	1401,77
458,72	1401,32
458,83	1382,79
458,94	1429,79
459,05	1430,47
459,17	1634,76
459,28	1376,69
459,39	1397,03
459,50	1377,59
459,61	1442,00
459,72	1352,96
459,84	1355,22
459,95	1408,32
460,06	1603,12
460,17	1379,85
460,28	1380,08
460,39	1387,08
460,51	1416,46
460,62	1401,55
460,73	1370,13
460,84	1345,50
460,95	1449,91
461,06	1464,59
461,18	1460,53
461,29	1465,72
461,40	1422,11
461,51	1413,75
461,62	1540,30
461,73	1388,66
461,84	1414,20
461,96	1406,06
462,07	1425,95
462,18	1382,56
462,29	1393,64
462,40	1435,22
462,51	1394,54
462,62	1464,14
462,73	1472,73
462,85	1444,26
462,96	1431,60
463,07	1460,98
463,18	1529,90
463,29	1430,02
463,40	1370,81
463,51	1378,27
463,62	1375,11
463,73	1411,49
463,85	1349,34
463,96	1409,00
464,07	1394,77
464,18	1383,69
464,29	1367,87
464,40	1441,77
464,51	1392,73
464,62	1393,41
464,73	1342,56
464,84	1430,47
464,95	1401,32
465,06	1386,40
465,18	1350,25
465,29	1388,44
465,40	1365,84
465,51	1386,63
465,62	1425,05
465,73	1382,56
465,84	1405,39
465,95	1398,61
466,06	1385,05
466,17	1388,89
466,28	1388,44
466,39	1457,81
466,50	1350,70
466,61	1364,94
466,72	1399,51
466,83	1352,96
466,95	1383,01
467,06	1358,16
467,17	1378,72
467,28	1371,26
467,39	1382,56
467,50	1403,35
467,61	1350,92
467,72	1354,09
467,83	1380,30
467,94	1411,94
468,05	1362,45
468,16	1412,84
468,27	1417,82
468,38	1355,44
468,49	1446,06
468,60	1362,45
468,71	1436,12
468,82	1429,34
468,93	1430,24
469,04	1460,75
469,15	1380,53
469,26	1367,87
469,37	1387,99
469,48	1463,92
469,59	1392,73
469,70	1345,95
469,81	1410,36
469,92	1342,11
470,03	1416,69
470,14	1359,96
470,25	1418,49
470,36	1400,19
470,47	1355,44
470,58	1366,97
470,69	1427,99
470,80	1428,44
470,91	1365,61
471,02	1362,45
471,13	1407,87
471,24	1394,54
471,35	1376,46
471,46	1455,55
471,56	1420,53
471,67	1410,58
471,78	1452,39
471,89	1331,26
472,00	1364,71
472,11	1416,91
472,22	1452,84
472,33	1382,34
472,44	1399,96
472,55	1375,56
472,66	1380,08
472,77	1379,17
472,88	1510,24
472,99	1450,13
473,10	1353,64
473,21	1367,42
473,32	1377,14
473,42	1363,35
473,53	1380,30
473,64	1400,42
473,75	1415,10
473,86	1399,51
473,97	1436,80
474,08	1397,48
474,19	1431,83
474,30	1509,11
474,41	1417,14
474,52	1373,75
474,62	1393,64
474,73	1366,52
474,84	1501,88
474,95	1423,92
475,06	1425,05
475,17	1377,14
475,28	1341,21
475,39	1399,96
475,50	1357,25
475,60	1345,95
475,71	1367,42
475,82	1428,21
475,93	1363,13
476,04	1463,46
476,15	1381,21
476,26	1417,36
476,37	1369,23
476,47	1380,53
476,58	1373,07
476,69	1344,82
476,80	1341,89
476,91	1389,79
477,02	1385,05
477,13	1386,63
477,23	1361,32
477,34	1384,14
477,45	1411,26
477,56	1394,99
477,67	1371,72
477,78	1379,17
477,89	1402,00
477,99	1379,85
478,10	1439,06
478,21	1408,32
478,32	1393,64
478,43	1388,89
478,54	1474,99
478,64	1410,81
478,75	1377,59
478,86	1365,84
478,97	1386,63
479,08	1385,27
479,18	1385,05
479,29	1385,73
479,40	1365,16
479,51	1349,57
479,62	1371,26
479,72	1362,45
479,83	1359,29
479,94	1423,24
480,05	1424,14
480,16	1356,80
480,26	1396,35
480,37	1357,25
480,48	1431,37
480,59	1394,77
480,70	1373,52
480,80	1385,95
480,91	1365,84
481,02	1344,82
481,13	1409,45
481,24	1395,44
481,34	1345,50
481,45	1496,68
481,56	1381,88
481,67	1380,30
481,77	1387,31
481,88	1378,49
481,99	1399,51
482,10	1409,91
482,20	1698,94
482,31	1374,43
482,42	1415,33
482,53	1376,69
482,63	1475,67
482,74	1430,02
482,85	1360,19
482,96	1358,61
483,06	1345,50
483,17	1400,87
483,28	1360,42
483,39	1403,35
483,49	1420,98
483,60	1529,90
483,71	1364,71
483,81	1429,57
483,92	1404,71
484,03	1375,56
484,14	1369,23
484,24	1342,34
484,35	1361,32
484,46	1402,67
484,57	1361,55
484,67	1393,64
484,78	1366,07
484,89	1487,87
484,99	1361,55
485,10	1375,33
485,21	1418,04
485,31	1420,75
485,42	1380,98
485,53	1363,13
485,63	1401,55
485,74	1485,61
485,85	1531,26
485,96	2027,29
486,06	1407,65
486,17	1404,71
486,28	1418,49
486,38	1359,29
486,49	1439,06
486,60	1363,13
486,70	1366,07
486,81	1352,28
486,92	1346,63
487,02	1380,08
487,13	1336,01
487,24	1384,37
487,34	1370,59
487,45	1472,50
487,56	1365,39
487,66	1335,56
487,77	1397,03
487,87	1381,43
487,98	1352,51
488,09	1390,02
488,19	1344,37
488,30	1512,73
488,41	1381,43
488,51	1352,96
488,62	1340,53
488,73	1378,95
488,83	1392,28
488,94	1402,22
489,04	1464,14
489,15	1375,33
489,26	1341,66
489,36	1412,84
489,47	1363,81
489,58	1365,16
489,68	1394,99
489,79	1352,05
489,89	1408,55
490,00	1370,13
490,11	1384,82
490,21	1387,08
490,32	1350,02
490,42	1393,18
490,53	1378,49
490,64	1346,18
490,74	1348,67
490,85	1341,66
490,95	1414,65
491,06	1409,45
491,16	1342,11
491,27	1416,91
491,38	1370,81
491,48	1489,45
491,59	1467,53
491,69	1422,56
491,80	1347,76
491,90	1457,36
492,01	1366,74
492,12	1412,39
492,22	1367,42
492,33	1434,54
492,43	1379,62
492,54	1351,60
492,64	1356,80
492,75	1389,12
492,86	1397,25
492,96	1381,21
493,07	1376,91
493,17	1374,88
493,28	1397,48
493,38	1390,47
493,49	1378,95
493,59	1404,48
493,70	1396,57
493,80	1358,83
493,91	1355,67
494,01	1356,57
494,12	1373,98
494,22	1419,62
494,33	1447,19
494,43	1442,00
494,54	1463,69
494,64	1406,74
494,75	1381,88
494,86	1456,68
494,96	1372,85
495,07	1374,43
495,17	1446,06
495,28	1394,54
495,38	1356,35
495,49	1396,12
495,59	1413,52
495,69	1389,57
495,80	1466,40
495,90	1366,52
496,01	1371,72
496,11	1401,32
496,22	1375,11
496,32	1361,09
496,43	1421,43
496,53	1373,30
496,64	1374,20
496,74	1387,08
496,85	1419,85
496,95	1411,49
497,06	1370,36
497,16	1413,75
497,27	1372,17
497,37	1454,43
497,48	1334,65
497,58	1365,39
497,68	1361,09
497,79	1427,08
497,89	1375,78
498,00	1385,05
498,10	1347,54
498,21	1443,58
498,31	1366,97
498,42	1369,68
498,52	1447,19
498,62	1398,38
498,73	1388,21
498,83	1381,66
498,94	1387,53
499,04	1429,57
499,15	1384,14
499,25	1348,44
499,35	1411,94
499,46	1480,19
499,56	1537,81
499,67	1411,49
499,77	1325,84
499,87	1356,12
499,98	1354,99
500,08	1328,78
500,19	1354,31
500,29	1381,21
500,39	1409,68
500,50	1430,92
500,60	1397,25
500,71	1375,56
500,81	1409,45
500,91	1342,79
501,02	1363,81
501,12	1416,01
501,22	1352,51
501,33	1403,80
501,43	1409,23
501,54	1355,90
501,64	1378,49
501,74	1363,13
501,85	1449,00
501,95	1361,09
502,05	1337,14
502,16	1373,52
502,26	1475,67
502,37	1403,35
502,47	1406,74
502,57	1362,45
502,68	1370,36
502,78	1337,37
502,88	1428,66
502,99	1363,35
503,09	1421,88
503,19	1359,51
503,30	1350,25
503,40	1357,93
503,50	1366,07
503,61	1381,88
503,71	1370,59
503,81	1379,62
503,92	1399,06
504,02	1418,95
504,12	1575,78
504,23	1451,49
504,33	1365,39
504,43	1381,66
504,54	1418,49
504,64	1408,32
504,74	1551,60
504,84	1415,10
504,95	1397,03
505,05	1330,81
505,15	1456,23
505,26	1365,39
505,36	1367,20
505,46	1376,46
505,56	1419,40
505,67	1396,57
505,77	1362,45
505,87	1357,25
505,98	1342,34
506,08	1349,34
506,18	1378,04
506,28	1389,34
506,39	1387,76
506,49	1365,16
506,59	1377,82
506,70	1335,33
506,80	1411,94
506,90	1486,97
507,00	1347,76
507,11	1384,82
507,21	1426,86
507,31	1398,83
507,41	1395,67
507,52	1360,87
507,62	1375,11
507,72	1444,03
507,82	1430,24
507,93	1376,01
508,03	1429,79
508,13	1401,32
508,23	1383,92
508,34	1394,54
508,44	1355,22
508,54	1390,47
508,64	1386,86
508,74	1344,37
508,85	1374,20
508,95	1370,81
509,05	1357,25
509,15	1392,51
509,26	1393,64
509,36	1360,42
509,46	1368,33
509,56	1334,88
509,66	1387,08
509,77	1369,91
509,87	1373,75
509,97	1398,83
510,07	1384,82
510,17	1335,11
510,28	1518,15
510,38	1421,21
510,48	1361,09
510,58	1393,64
510,68	1397,25
510,78	1384,14
510,89	1368,78
510,99	1333,98
511,09	1400,42
511,19	1404,71
511,29	1360,19
511,39	1455,78
511,50	1446,06
511,60	1334,65
511,70	1422,34
511,80	1424,60
511,90	1437,93
512,00	1389,57
512,11	1370,13
512,21	1399,74
512,31	1346,18
512,41	1497,14
512,51	1386,40
512,61	1481,99
512,71	1359,06
512,82	1378,27
512,92	1334,43
513,02	1389,57
513,12	1375,78
513,22	1375,33
513,32	1434,54
513,42	1406,29
513,53	1445,16
513,63	1421,43
513,73	1431,60
513,83	1346,41
513,93	1391,15
514,03	1420,75
514,13	1472,73
514,23	1375,11
514,33	1380,75
514,44	1367,87
514,54	1373,75
514,64	1498,49
514,74	1380,08
514,84	1385,73
514,94	1460,98
515,04	1437,93
515,14	1408,55
515,24	1415,33
515,34	1373,52
515,44	1339,85
515,55	1350,70
515,65	1425,05
515,75	1366,97
515,85	1384,60
515,95	1402,00
516,05	1469,11
516,15	1404,26
516,25	1377,14
516,35	1379,62
516,45	1370,13
516,55	1370,13
516,65	1364,48
516,75	1488,10
516,85	1408,78
516,95	1435,67
517,05	1464,14
517,16	1355,22
517,26	1522,45
517,36	1370,81
517,46	1333,98
517,56	1387,99
517,66	1386,86
517,76	1372,17
517,86	1385,05
517,96	1403,13
518,06	1353,86
518,16	1349,80
518,26	1410,58
518,36	1363,81
518,46	1380,08
518,56	1426,86
518,66	1445,61
518,76	1420,98
518,86	1440,41
518,96	1371,72
519,06	1361,09
519,16	1427,53
519,26	1411,94
519,36	1416,69
519,46	1388,66
519,56	1465,05
519,66	1512,73
519,76	1386,40
519,86	1381,21
519,96	1396,80
520,06	1378,95
520,16	1486,74
520,26	1377,36
520,36	1391,60
520,46	1379,85
520,56	1386,40
520,66	1385,27
520,76	1392,51
520,86	1385,50
520,96	1446,52
521,06	1438,61
521,16	1356,35
521,26	1383,69
521,35	1425,50
521,45	1365,84
521,55	1384,60
521,65	1418,27
521,75	1394,31
521,85	1339,63
521,95	1400,42
522,05	1356,12
522,15	1370,13
522,25	1770,35
522,35	1464,82
522,45	1397,48
522,55	1456,01
522,65	1416,69
522,75	1373,07
522,85	1371,26
522,94	1391,15
523,04	1418,49
523,14	1406,74
523,24	1394,31
523,34	1369,23
523,44	1401,32
523,54	1373,75
523,64	1369,46
523,74	1480,19
523,84	1445,39
523,94	1395,90
524,03	1366,29
524,13	1411,71
524,23	1408,10
524,33	1359,51
524,43	1406,52
524,53	1392,96
524,63	1362,45
524,73	1359,51
524,83	1344,60
524,92	1369,00
525,02	1351,38
525,12	1435,89
525,22	1369,46
525,32	1364,03
525,42	1437,02
525,52	1399,29
525,61	1418,04
525,71	1338,95
525,81	1389,12
525,91	1341,66
526,01	1378,27
526,11	1382,11
526,21	1415,33
526,30	1369,46
526,40	1362,45
526,50	1412,84
526,60	1437,93
526,70	1427,08
526,80	1417,14
526,89	1380,75
526,99	1349,57
527,09	1386,86
527,19	1398,38
527,29	1410,36
527,39	1365,61
527,48	1418,27
527,58	1401,09
527,68	1358,38
527,78	1430,02
527,88	1495,10
527,97	1376,01
528,07	1380,53
528,17	1437,70
528,27	1445,61
528,37	1386,63
528,46	1354,09
528,56	1442,45
528,66	1406,29
528,76	1355,22
528,86	1417,59
528,95	1361,77
529,05	1372,17
529,15	1366,74
529,25	1405,84
529,35	1428,89
529,44	1413,30
529,54	1458,49
529,64	1416,01
529,74	1397,48
529,83	1335,78
529,93	1366,74
530,03	1409,45
530,13	1376,46
530,22	1434,09
530,32	1449,00
530,42	1422,34
530,52	1343,47
530,61	1408,55
530,71	1338,27
530,81	1435,67
530,91	1395,44
531,00	1382,34
531,10	1385,73
531,20	1433,41
531,30	1449,68
531,39	1500,07
531,49	1578,26
531,59	1890,80
531,69	1854,64
531,78	1837,24
531,88	1865,71
531,98	1867,30
532,07	1756,56
532,17	1709,11
532,27	1649,22
532,37	1485,38
532,46	1468,66
532,56	1399,74
532,66	1349,80
532,75	1398,61
532,85	1386,40
532,95	1392,51
533,04	1380,75
533,14	1402,90
533,24	1417,59
533,34	1360,64
533,43	1434,76
533,53	1338,95
533,63	1408,32
533,72	1366,52
533,82	1356,12
533,92	1367,20
534,01	1531,71
534,11	1560,64
534,21	1423,47
534,30	1373,75
534,40	1388,89
534,50	1355,67
534,59	1357,03
534,69	1347,31
534,79	1409,45
534,88	1452,39
534,98	1423,69
535,08	1340,08
535,17	1410,13
535,27	1376,01
535,36	1365,39
535,46	1384,82
535,56	1363,35
535,65	1430,70
535,75	1403,35
535,85	1384,37
535,94	1378,95
536,04	1364,26
536,14	1402,45
536,23	1457,14
536,33	1343,69
536,42	1397,03
536,52	1371,26
536,62	1335,11
536,71	1399,06
536,81	1405,61
536,90	1380,98
537,00	1413,97
537,10	1370,13
537,19	1376,91
537,29	1419,62
537,38	1437,25
537,48	1385,05
537,58	1384,37
537,67	1363,35
537,77	1373,75
537,86	1362,68
537,96	1445,39
538,06	1392,73
538,15	1367,42
538,25	1482,45
538,34	1517,02
538,44	1467,53
538,53	1420,08
538,63	1454,65
538,73	1418,72
538,82	1416,23
538,92	1394,54
539,01	1488,32
539,11	1380,75
539,20	1511,15
539,30	1442,67
539,39	1375,11
539,49	1408,78
539,59	1429,79
539,68	1540,07
539,78	1552,95
539,87	1449,00
539,97	1462,79
540,06	1456,01
540,16	1413,30
540,25	1474,09
540,35	1499,40
540,44	1450,81
540,54	1533,97
540,63	1457,14
540,73	1407,42
540,82	1448,78
540,92	1412,17
541,01	1517,47
541,11	1514,99
541,20	1471,60
541,30	1468,21
541,39	1509,11
541,49	1462,56
541,58	1519,96
541,68	1517,70
541,77	1484,93
541,87	1421,88
541,96	1430,70
542,06	1517,25
542,15	1468,21
542,25	1650,13
542,34	1521,99
542,44	1462,56
542,53	1467,08
542,63	1486,29
542,72	1458,72
542,82	1446,52
542,91	1486,97
543,01	1451,49
543,10	1518,15
543,20	1496,68
543,29	1503,46
543,38	1455,78
543,48	1477,25
543,57	1465,95
543,67	1459,17
543,76	1469,11
543,86	1455,33
543,95	1493,75
544,05	1559,51
544,14	1621,43
544,23	1486,51
544,33	1469,57
544,42	1514,99
544,52	1470,70
544,61	1497,81
544,71	1559,28
544,80	1580,30
544,89	1562,90
544,99	1524,48
545,08	1573,52
545,18	1463,46
545,27	1652,39
545,36	1603,12
545,46	1554,76
545,55	1540,07
545,65	1525,61
545,74	1492,16
545,84	1490,36
545,93	1491,71
546,02	1507,30
546,12	1554,31
546,21	1544,14
546,30	1486,06
546,40	1496,68
546,49	1457,36
546,59	1502,11
546,68	1461,66
546,77	1560,41
546,87	1516,57
546,96	1522,67
547,05	1511,15
547,15	1465,72
547,24	1504,59
547,34	1474,31
547,43	1490,58
547,52	1566,51
547,62	1526,74
547,71	1516,80
547,80	1513,63
547,90	1473,86
547,99	1573,07
548,08	1514,76
548,18	1455,10
548,27	1471,37
548,36	1461,43
548,46	1472,96
548,55	1453,97
548,64	1507,30
548,74	1465,05
548,83	1487,42
548,92	1585,50
549,02	1481,54
549,11	1613,74
549,20	1518,38
549,30	1474,54
549,39	1511,37
549,48	1494,65
549,58	1450,13
549,67	1512,05
549,76	1484,25
549,85	1444,26
549,95	1475,89
550,04	1525,16
550,13	1465,95
550,23	1526,51
550,32	1466,63
550,41	1444,71
550,50	1513,63
550,60	1561,31
550,69	1496,91
550,78	1454,20
550,88	1555,21
550,97	1533,29
551,06	1481,32
551,15	1481,54
551,25	1566,06
551,34	1452,84
551,43	1479,51
551,52	1502,56
551,62	1531,26
551,71	1554,76
551,80	1539,17
551,89	1491,94
551,99	1460,75
552,08	1499,85
552,17	1466,63
552,26	1506,40
552,36	1422,79
552,45	1420,98
552,54	1453,07
552,63	1525,61
552,73	1625,72
552,82	1577,13
552,91	1493,75
553,00	1627,53
553,10	1493,07
553,19	1605,16
553,28	1493,29
553,37	1521,32
553,46	1468,21
553,56	1539,39
553,65	1470,47
553,74	1448,78
553,83	1507,98
553,92	1491,26
554,02	1503,46
554,11	1477,25
554,20	1431,15
554,29	1576,46
554,38	1486,29
554,48	1505,05
554,57	1471,60
554,66	1479,96
554,75	1522,45
554,84	1537,36
554,94	1506,18
555,03	1485,84
555,12	1435,44
555,21	1438,38
555,30	1596,34
555,39	1446,74
555,49	1480,41
555,58	1510,47
555,67	1534,20
555,76	1552,73
555,85	1477,48
555,94	1445,84
556,03	1489,68
556,13	1507,76
556,22	1476,80
556,31	1514,08
556,40	1434,54
556,49	1518,38
556,58	1484,03
556,67	1507,30
556,77	1490,81
556,86	1555,67
556,95	1516,12
557,04	1580,30
557,13	1578,94
557,22	1545,04
557,31	1493,07
557,40	1497,81
557,50	1572,39
557,59	1460,75
557,68	1457,81
557,77	1559,51
557,86	1534,87
557,95	1502,79
558,04	1491,03
558,13	1491,03
558,22	1523,12
558,31	1461,43
558,41	1444,71
558,50	1513,86
558,59	1543,91
558,68	1553,63
558,77	1575,33
558,86	1471,37
558,95	1449,23
559,04	1518,38
559,13	1573,52
559,22	1463,69
559,31	1512,05
559,40	1479,96
559,49	1491,26
559,59	1535,78
559,68	1462,11
559,77	1571,71
559,86	1618,26
559,95	1527,42
560,04	1497,36
560,13	1526,06
560,22	1625,04
560,31	1508,66
560,40	1499,40
560,49	1445,84
560,58	1481,32
560,67	1501,88
560,76	1467,08
560,85	1470,92
560,94	1562,22
561,03	1486,51
561,12	1688,09
561,21	1650,80
561,30	1537,13
561,39	1479,06
561,48	1523,80
561,57	1451,94
561,66	1545,95
561,75	1607,87
561,84	1499,40
561,93	1481,77
562,02	1496,46
562,11	1474,76
562,20	1482,90
562,29	1501,88
562,38	1450,36
562,47	1550,92
562,56	1505,72
562,65	1488,10
562,74	1518,15
562,83	1667,75
562,92	1545,50
563,01	1582,56
563,10	1463,24
563,19	1477,25
563,28	1721,08
563,37	1567,42
563,46	1446,06
563,55	1496,46
563,64	1677,92
563,73	1482,45
563,82	1522,90
563,91	1601,09
564,00	1523,35
564,09	1475,67
564,18	1530,36
564,27	1451,94
564,35	1530,36
564,44	1524,25
564,53	1551,15
564,62	1541,88
564,71	1526,97
564,80	1514,08
564,89	1553,41
564,98	2992,69
565,07	1622,56
565,16	1488,77
565,25	1791,82
565,34	1494,42
565,43	1498,94
565,51	1479,96
565,60	1601,54
565,69	1500,75
565,78	1618,71
565,87	1465,50
565,96	1453,97
566,05	1558,60
566,14	1597,92
566,23	1542,11
566,32	1577,13
566,40	1575,55
566,49	1617,13
566,58	1508,43
566,67	1486,29
566,76	1463,69
566,85	1490,58
566,94	1526,06
567,03	1544,37
567,11	1495,78
567,20	1514,08
567,29	1568,55
567,38	1550,02
567,47	1475,67
567,56	1510,24
567,65	1535,10
567,73	1470,47
567,82	1474,09
567,91	1546,17
568,00	1488,32
568,09	1593,18
568,18	1467,08
568,27	1521,99
568,35	1526,06
568,44	1566,06
568,53	1523,58
568,62	1471,60
568,71	1460,98
568,80	1474,99
568,88	1528,10
568,97	1592,05
569,06	1442,67
569,15	1486,29
569,24	1507,98
569,32	1546,63
569,41	1503,92
569,50	1477,93
569,59	1460,30
569,68	1465,95
569,76	1493,29
569,85	1535,78
569,94	1559,51
570,03	1476,35
570,12	1543,91
570,20	1521,77
570,29	1520,64
570,38	1520,41
570,47	1527,64
570,56	1458,04
570,64	1475,67
570,73	1502,33
570,82	1590,47
570,91	1557,93
570,99	1446,74
571,08	1466,63
571,17	1474,76
571,26	1570,13
571,34	1481,32
571,43	1512,95
571,52	1535,33
571,61	1477,02
571,69	1456,68
571,78	1546,85
571,87	1567,19
571,96	1542,11
572,04	1534,20
572,13	1556,34
572,22	1463,01
572,31	1462,56
572,39	1486,29
572,48	1510,69
572,57	1496,46
572,66	1480,19
572,74	1464,37
572,83	1539,62
572,92	1497,36
573,00	1440,87
573,09	1535,10
573,18	1552,05
573,27	1557,02
573,35	1477,48
573,44	1448,78
573,53	1500,75
573,61	1492,16
573,70	1516,80
573,79	1484,03
573,87	1626,17
573,96	1485,16
574,05	1497,36
574,14	1472,28
574,22	1475,89
574,31	1565,61
574,40	1451,26
574,48	1495,10
574,57	1509,34
574,66	1470,02
574,74	1514,54
574,83	1588,88
574,92	1566,06
575,00	1493,75
575,09	1569,68
575,18	1486,06
575,26	1568,55
575,35	1500,53
575,43	1487,19
575,52	1542,78
575,61	1528,10
575,69	1565,38
575,78	1517,70
575,87	1634,76
575,95	1518,83
576,04	1477,93
576,13	1522,90
576,21	1479,74
576,30	1545,95
576,38	1527,87
576,47	1486,51
576,56	1502,33
576,64	1494,42
576,73	1558,60
576,82	1553,41
576,90	1524,71
576,99	1522,45
577,07	1500,30
577,16	1498,94
577,25	1536,46
577,33	1626,17
577,42	1533,52
577,50	1482,45
577,59	1536,68
577,68	1571,48
577,76	1498,27
577,85	1503,92
577,93	1556,34
578,02	1529,23
578,10	1535,78
578,19	1520,41
578,28	1488,55
578,36	1503,69
578,45	1527,42
578,53	1467,53
578,62	1467,08
578,70	1474,99
578,79	1531,49
578,88	1520,41
578,96	1492,16
579,05	1471,60
579,13	1627,98
579,22	1543,46
579,30	1501,88
579,39	1534,20
579,47	1613,29
579,56	1490,13
579,64	1747,52
579,73	1493,97
579,82	1536,91
579,90	1474,99
579,99	1482,45
580,07	1520,64
580,16	1511,15
580,24	1554,54
580,33	1442,67
580,41	1514,99
580,50	1451,49
580,58	1512,05
580,67	1481,77
580,75	1503,69
580,84	1501,20
580,92	1460,75
581,01	1602,67
581,09	1489,90
581,18	1510,02
581,26	1485,16
581,35	1474,09
581,43	1561,77
581,52	1510,24
581,60	1512,05
581,69	1503,01
581,77	1514,31
581,86	1530,58
581,94	1498,27
582,02	1521,54
582,11	1462,33
582,19	1602,44
582,28	1617,81
582,36	1612,39
582,45	1624,14
582,53	1482,22
582,62	1504,82
582,70	1481,77
582,79	1520,86
582,87	1482,67
582,96	1523,35
583,04	1571,03
583,12	1533,97
583,21	1515,44
583,29	1525,61
583,38	1532,16
583,46	1506,63
583,55	1502,33
583,63	1442,22
583,71	1549,34
583,80	1522,90
583,88	1471,15
583,97	1664,36
584,05	1541,65
584,13	1543,91
584,22	1553,63
584,30	1475,44
584,39	1548,89
584,47	1564,25
584,55	1469,79
584,64	1524,48
584,72	1523,80
584,81	1453,75
584,89	1502,79
584,97	1497,59
585,06	1470,70
585,14	1517,70
585,23	1531,26
585,31	1461,20
585,39	1502,79
585,48	1521,54
585,56	1474,09
585,64	1525,84
585,73	1508,89
585,81	1501,66
585,90	1559,51
585,98	1513,86
586,06	1505,50
586,15	1593,63
586,23	1454,20
586,31	1496,46
586,40	1457,81
586,48	1580,07
586,56	1486,97
586,65	1468,89
586,73	1475,44
586,81	1536,00
586,90	1503,92
586,98	1453,97
587,06	1440,87
587,15	1487,19
587,23	1494,20
587,31	1495,33
587,40	1479,28
587,48	1488,10
587,56	1568,55
587,65	1643,80
587,73	1545,27
587,81	1518,83
587,90	1606,74
587,98	1494,20
588,06	1481,77
588,14	1472,50
588,23	1493,29
588,31	1577,36
588,39	1540,30
588,48	1503,24
588,56	1471,60
588,64	1514,99
588,72	1503,92
588,81	1484,03
588,89	1488,77
588,97	1488,55
589,06	1566,29
589,14	1564,48
589,22	1513,18
589,30	1491,26
589,39	1468,66
589,47	1560,41
589,55	1578,26
589,63	1521,54
589,72	1513,41
589,80	1478,15
589,88	1527,19
589,96	1566,51
590,05	1523,12
590,13	1520,41
590,21	1561,77
590,29	1564,48
590,38	1533,07
590,46	1562,90
590,54	1481,09
590,62	1466,40
590,71	1566,51
590,79	1564,25
590,87	1454,43
590,95	1469,79
591,03	1496,46
591,12	1510,02
591,20	1471,83
591,28	1623,69
591,36	1530,58
591,44	1495,10
591,53	1498,04
591,61	1518,60
591,69	1474,76
591,77	1517,02
591,85	1507,98
591,94	1468,66
592,02	1488,55
592,10	1554,99
592,18	1516,12
592,26	1517,02
592,34	1468,44
592,43	1447,87
592,51	1453,30
592,59	1477,93
592,67	1459,85
592,75	1471,83
592,84	1480,64
592,92	1541,20
593,00	1492,62
593,08	1475,89
593,16	1473,41
593,24	1479,28
593,32	1546,85
593,41	1518,38
593,49	1453,52
593,57	1470,47
593,65	1446,52
593,73	1513,63
593,81	1526,97
593,89	1531,03
593,98	1498,72
594,06	1444,03
594,14	1481,32
594,22	1480,41
594,30	1465,05
594,38	1484,93
594,46	1540,30
594,54	1550,24
594,62	1532,62
594,71	1481,54
594,79	1476,57
594,87	1480,19
594,95	1494,20
595,03	1541,43
595,11	1505,72
595,19	1591,37
595,27	1494,20
595,35	1473,18
595,43	1467,76
595,52	1472,28
595,60	1480,64
595,68	1615,32
595,76	1459,17
595,84	1510,69
595,92	1478,83
596,00	1563,80
596,08	1531,71
596,16	1497,14
596,24	1505,27
596,32	1490,58
596,40	1521,99
596,48	1517,25
596,56	1519,28
596,64	1478,38
596,73	1577,13
596,81	1491,49
596,89	1510,92
596,97	1441,32
597,05	1656,45
597,13	1489,23
597,21	1416,23
597,29	1469,57
597,37	1551,60
597,45	1516,80
597,53	1463,24
597,61	1480,64
597,69	1517,25
597,77	1483,80
597,85	1472,05
597,93	1493,07
598,01	1481,54
598,09	1528,77
598,17	1496,68
598,25	1472,28
598,33	1478,83
598,41	1476,35
598,49	1463,92
598,57	1467,98
598,65	1463,69
598,73	1487,42
598,81	1495,78
598,89	1486,74
598,97	1479,28
599,05	1557,93
599,13	1482,90
599,21	1472,73
599,29	1487,42
599,37	1474,54
599,45	1491,03
599,53	1564,70
599,61	1449,23
599,69	1500,98
599,77	1471,15
599,85	1468,66
599,93	1470,92
600,00	1455,78
600,08	1520,64
600,16	1442,90
600,24	1451,71
600,32	1578,94
600,40	1580,52
600,48	1551,15
600,56	1535,78
600,64	1538,94
600,72	1498,72
600,80	1482,22
600,88	1474,99
600,96	1560,41
601,04	1449,91
601,12	1444,71
601,19	1410,13
601,27	1463,69
601,35	1496,01
601,43	1457,59
601,51	1489,00
601,59	1473,86
601,67	1437,02
601,75	1476,57
601,83	1472,96
601,91	1437,02
601,98	1445,61
602,06	1518,60
602,14	1505,72
602,22	1507,08
602,30	1540,30
602,38	1495,33
602,46	1442,67
602,54	1546,40
602,61	1502,56
602,69	1496,01
602,77	1423,47
602,85	1454,43
602,93	1462,33
603,01	1488,77
603,09	1545,27
603,17	1484,03
603,24	1487,87
603,32	1434,54
603,40	1481,32
603,48	1524,03
603,56	1431,60
603,64	1458,27
603,71	1430,02
603,79	1494,42
603,87	1516,12
603,95	1617,13
604,03	1477,02
604,11	1520,86
604,18	1495,33
604,26	1439,06
604,34	1455,33
604,42	1490,81
604,50	1445,61
604,57	1460,98
604,65	1458,49
604,73	1472,28
604,81	1504,59
604,89	1441,77
604,96	1452,39
605,04	1495,10
605,12	1461,66
605,20	1519,06
605,28	1551,82
605,35	1472,28
605,43	1492,16
605,51	1465,72
605,59	1504,14
605,67	1579,62
605,74	1475,44
605,82	1465,27
605,90	1447,87
605,98	1520,86
606,05	1459,85
606,13	1508,21
606,21	1477,93
606,29	1473,18
606,36	1489,90
606,44	1447,19
606,52	1464,59
606,60	1467,08
606,67	1437,48
606,75	1460,75
606,83	1424,82
606,91	1510,47
606,98	1458,94
607,06	1468,21
607,14	1468,44
607,22	1439,96
607,29	1446,52
607,37	1472,96
607,45	1489,68
607,52	1512,50
607,60	1490,36
607,68	1478,15
607,76	1492,84
607,83	1421,43
607,91	1501,20
607,99	1486,06
608,06	1488,55
608,14	1472,50
608,22	1456,91
608,30	1553,41
608,37	1441,54
608,45	1427,08
608,53	1479,28
608,60	1501,66
608,68	1449,00
608,76	1467,08
608,83	1503,69
608,91	1457,14
608,99	1523,80
609,06	1498,04
609,14	1508,43
609,22	1456,91
609,29	1465,27
609,37	1426,63
609,45	1506,18
609,52	1420,53
609,60	1441,32
609,68	1455,55
609,75	1463,69
609,83	1425,05
609,91	1589,56
609,98	1454,65
610,06	1451,26
610,13	1473,41
610,21	1467,53
610,29	1464,14
610,36	1437,02
610,44	1452,62
610,52	1453,52
610,59	1433,18
610,67	1434,31
610,74	1472,28
610,82	1446,52
610,90	1470,70
610,97	1453,52
611,05	1493,29
611,13	1474,54
611,20	1566,51
611,28	1453,75
611,35	1473,41
611,43	1416,23
611,51	1471,60
611,58	1453,75
611,66	1529,68
611,73	1451,49
611,81	1522,67
611,88	1478,61
611,96	1500,98
612,04	1423,69
612,11	1448,32
612,19	1533,97
612,26	1455,33
612,34	1459,62
612,41	1450,36
612,49	1436,80
612,57	1419,17
612,64	1432,50
612,72	1536,68
612,79	1565,16
612,87	1403,58
612,94	1401,32
613,02	1453,52
613,09	1456,01
613,17	1481,54
613,24	1440,19
613,32	1514,08
613,40	1457,36
613,47	1463,01
613,55	1422,11
613,62	1500,75
613,70	1532,84
613,77	1432,50
613,85	1493,52
613,92	1447,42
614,00	1424,82
614,07	1436,57
614,15	1407,65
614,22	1420,08
614,30	1487,87
614,37	1404,93
614,45	1450,81
614,52	1420,53
614,60	1449,00
614,67	1488,32
614,75	1416,23
614,82	1476,12
614,90	1443,58
614,97	1407,65
615,05	1546,63
615,12	1502,56
615,20	1464,37
615,27	1457,14
615,34	1437,02
615,42	1420,98
615,49	1452,62
615,57	1425,73
615,64	1428,89
615,72	1434,31
615,79	1426,86
615,87	1464,59
615,94	1500,07
616,02	1453,07
616,09	1513,86
616,16	1469,11
616,24	1447,19
616,31	1401,77
616,39	1524,71
616,46	1496,23
616,54	1446,29
616,61	1569,22
616,68	1410,58
616,76	1435,67
616,83	1474,99
616,91	1435,22
616,98	1408,32
617,06	1500,53
617,13	1416,91
617,20	1432,28
617,28	1435,44
617,35	1408,10
617,43	1488,77
617,50	1410,58
617,57	1434,76
>>>>>End Processed Spectral Data<<<<<
