SpectraSuite Datei
++++++++++++++++++++++++++++++++++++
Datum: Thu Jan 01 10:47:22 CET 2004
Benutzer: H. Stützler
Dark-Spektrum vorhanden: Nein
Referenz-Spektrum vorhanden: Nein
Zahl der probierten Teilspektren: 1
Spektrometer: USB2+H04734
Integrationszeit (usec): 30000000 (USB2+H04734)
Spektren Durchschnitt berechnet: 10 (USB2+H04734)
Boxcar Glättung: 0 (USB2+H04734)
Dunkelstromkorrektur: Nein (USB2+H04734)
Puls/Lampe aktiviert: Nein (USB2+H04734)
Correct for Detector Non-linearity: Nein (USB2+H04734)
Streulichtkorrektur: Nein (USB2+H04734)
Anzahl Pixel in verarbeitetem Spektrum: 2048
>>>>>Begin Processed Spectral Data<<<<<
418,45	1324,48
418,57	1324,48
418,69	1324,48
418,80	1251,72
418,92	1202,45
419,04	7829,85
419,16	3692,33
419,28	3865,21
419,40	3317,88
419,52	3908,82
419,64	3213,25
419,75	3387,48
419,87	3554,03
419,99	3045,80
420,11	3273,81
420,23	3652,11
420,35	4789,03
420,47	4025,43
420,58	3281,50
420,70	4236,50
420,82	3894,36
420,94	4777,95
421,06	6273,28
421,18	4893,88
421,29	4219,78
421,41	3498,21
421,53	4266,10
421,65	5534,77
421,77	5447,31
421,89	4186,56
422,00	6566,83
422,12	4031,98
422,24	3818,43
422,36	5974,08
422,48	5841,65
422,59	4265,42
422,71	5475,56
422,83	3417,99
422,95	3784,08
423,07	5145,40
423,18	6412,26
423,30	5509,23
423,42	3824,08
423,54	4369,83
423,66	3827,70
423,77	4594,68
423,89	4012,10
424,01	3623,41
424,13	3314,72
424,25	3574,14
424,36	4757,62
424,48	4457,96
424,60	3982,95
424,72	6215,43
424,84	3950,63
424,95	5839,85
425,07	4434,91
425,19	4453,89
425,31	4723,94
425,42	3354,71
425,54	5132,75
425,66	4779,99
425,78	3816,17
425,89	4409,15
426,01	3978,88
426,13	4178,65
426,25	5829,23
426,36	4046,45
426,48	5069,02
426,60	5261,10
426,72	4110,85
426,83	5337,94
426,95	4972,75
427,07	4222,49
427,19	7178,79
427,30	4462,48
427,42	3211,89
427,54	3537,76
427,66	4050,29
427,77	3691,20
427,89	4596,72
428,01	4940,66
428,12	5001,00
428,24	3277,43
428,36	3492,34
428,48	3206,47
428,59	3454,37
428,71	4493,22
428,83	3361,72
428,94	3876,73
429,06	3848,94
429,18	5017,72
429,30	4324,63
429,41	3908,82
429,53	5488,22
429,65	5294,55
429,76	4931,85
429,88	3814,36
430,00	4751,51
430,11	6018,15
430,23	3998,54
430,35	6629,66
430,47	3864,76
430,58	3423,41
430,70	5530,02
430,82	4719,65
430,93	9364,95
431,05	4485,08
431,17	4168,03
431,28	5543,58
431,40	3644,20
431,52	6666,49
431,63	3355,39
431,75	3321,04
431,87	4084,64
431,98	5435,34
432,10	4469,26
432,22	4046,45
432,33	5880,75
432,45	4323,50
432,56	4557,39
432,68	5241,90
432,80	3879,45
432,91	5343,59
433,03	4495,48
433,15	6044,36
433,26	4616,15
433,38	4052,55
433,50	3128,51
433,61	5581,55
433,73	6301,53
433,84	4141,36
433,96	3482,85
434,08	4220,91
434,19	3995,15
434,31	4048,26
434,43	4405,76
434,54	4200,12
434,66	3178,22
434,77	3135,96
434,89	5269,24
435,01	4685,30
435,12	3442,62
435,24	3904,98
435,35	3792,67
435,47	6888,41
435,59	4287,80
435,70	3637,42
435,82	4219,78
435,93	5722,56
436,05	4478,75
436,17	4055,71
436,28	4942,92
436,40	4747,67
436,51	3441,72
436,63	4064,30
436,74	5692,28
436,86	6640,50
436,98	11201,06
437,09	3955,83
437,21	5340,65
437,32	3476,97
437,44	5251,84
437,55	3836,51
437,67	15295,19
437,79	7924,99
437,90	4843,49
438,02	3678,55
438,13	40148,55
438,25	6112,16
438,36	5353,31
438,48	4842,36
438,59	5768,66
438,71	4557,62
438,83	3699,56
438,94	3422,51
439,06	5813,41
439,17	5519,63
439,29	3715,83
439,40	4368,92
439,52	3983,17
439,63	4912,87
439,75	3467,93
439,86	3363,53
439,98	4283,73
440,09	5405,06
440,21	4128,93
440,32	3844,19
440,44	3132,57
440,55	4343,39
440,67	3898,65
440,78	5981,09
440,90	3492,56
441,01	3887,81
441,13	3493,92
441,24	4787,22
441,36	6202,55
441,47	3637,64
441,59	5488,22
441,70	3371,44
441,82	5509,69
441,93	4815,47
442,05	3129,18
442,16	3698,21
442,28	3179,35
442,39	4178,65
442,51	5317,37
442,62	3826,11
442,74	5427,88
442,85	4108,82
442,97	7155,52
443,08	5249,58
443,20	5148,34
443,31	4720,55
443,43	3793,12
443,54	4822,92
443,66	3150,43
443,77	3646,01
443,88	3196,07
444,00	4465,19
444,11	5362,57
444,23	6134,30
444,34	3459,57
444,46	3481,49
444,57	6091,14
444,69	5642,56
444,80	4815,92
444,91	8020,13
445,03	3295,96
445,14	5501,32
445,26	3172,35
445,37	3368,27
445,49	4424,29
445,60	5971,37
445,71	5568,67
445,83	4200,12
445,94	3392,00
446,06	5577,03
446,17	3281,50
446,29	2925,12
446,40	4077,41
446,51	5732,05
446,63	4196,95
446,74	3598,55
446,86	3674,93
446,97	5830,13
447,08	3617,31
447,20	3940,01
447,31	3207,15
447,43	4180,91
447,54	4413,44
447,65	5033,77
447,77	3460,70
447,88	4111,08
448,00	4559,88
448,11	3155,40
448,22	3684,65
448,34	4516,49
448,45	3010,77
448,56	3957,64
448,68	4679,42
448,79	6034,19
448,90	4947,21
449,02	3933,91
449,13	3780,47
449,25	5487,99
449,36	3771,88
449,47	3942,27
449,59	6260,85
449,70	4356,95
449,81	3674,03
449,93	4058,20
450,04	3773,01
450,15	3920,12
450,27	4088,03
450,38	4835,35
450,49	3860,01
450,61	6635,31
450,72	4061,59
450,83	5298,62
450,95	3943,17
451,06	4810,95
451,17	6676,21
451,29	5224,72
451,40	3601,04
451,51	3130,99
451,63	3259,58
451,74	5678,72
451,85	3921,03
451,97	5416,35
452,08	4266,78
452,19	3502,05
452,31	6078,94
452,42	4220,68
452,53	6482,99
452,65	5762,11
452,76	3237,20
452,87	3332,57
452,98	3455,95
453,10	4079,21
453,21	3316,30
453,32	3709,51
453,44	3322,85
453,55	3028,39
453,66	7953,01
453,77	4912,19
453,89	5188,34
454,00	6493,61
454,11	4481,92
454,23	4288,02
454,34	4320,79
454,45	3130,99
454,56	4914,22
454,68	7072,81
454,79	4164,86
454,90	4552,65
455,01	3306,35
455,13	3145,68
455,24	6363,90
455,35	3576,63
455,46	2747,50
455,58	3048,06
455,69	6010,24
455,80	4843,94
455,91	3223,64
456,03	4075,60
456,14	5323,02
456,25	3514,26
456,36	3219,35
456,48	3899,11
456,59	6006,62
456,70	3521,26
456,81	5713,30
456,92	6874,62
457,04	5206,42
457,15	7892,90
457,26	3195,40
457,37	3980,91
457,49	3533,69
457,60	3135,51
457,71	4229,49
457,82	4975,69
457,93	4304,29
458,05	5716,23
458,16	3361,49
458,27	3922,61
458,38	4270,40
458,49	4931,85
458,61	3865,44
458,72	4417,06
458,83	3982,95
458,94	5002,13
459,05	4811,62
459,17	11308,18
459,28	3666,80
459,39	4073,57
459,50	3087,15
459,61	5424,94
459,72	3157,88
459,84	3301,38
459,95	4110,63
460,06	10770,79
460,17	3490,76
460,28	3949,50
460,39	4060,68
460,51	4630,61
460,62	4057,75
460,73	3992,89
460,84	2768,06
460,95	6164,13
461,06	6631,46
461,18	6051,37
461,29	5836,23
461,40	4241,24
461,51	4683,04
461,62	8239,33
461,73	4073,79
461,84	4940,44
461,96	4804,62
462,07	5227,43
462,18	3603,75
462,29	4086,67
462,40	5470,59
462,51	3960,12
462,62	6187,18
462,73	7322,75
462,85	5143,37
462,96	5003,94
463,07	5544,71
463,18	7783,07
463,29	5114,44
463,40	3775,72
463,51	3274,04
463,62	3312,68
463,73	5321,22
463,85	3407,59
463,96	4346,10
464,07	4272,66
464,18	3967,13
464,29	3290,53
464,40	6409,55
464,51	4381,58
464,62	3933,91
464,73	3145,45
464,84	5032,64
464,95	3977,97
465,06	4103,17
465,18	2928,74
465,29	4452,09
465,40	3735,27
465,51	4106,78
465,62	5132,52
465,73	4015,49
465,84	4559,65
465,95	4665,87
466,06	3659,79
466,17	4093,45
466,28	3950,18
466,39	5620,87
466,50	3044,21
466,61	2581,63
466,72	4474,68
466,83	3046,02
466,95	3269,29
467,06	2843,99
467,17	3906,34
467,28	3439,23
467,39	3847,58
467,50	4817,95
467,61	2982,75
467,72	3063,65
467,83	3174,15
467,94	4354,46
468,05	3032,69
468,16	4595,59
468,27	4145,88
468,38	3101,61
468,49	5599,40
468,60	3213,02
468,71	5808,43
468,82	5514,66
468,93	5268,79
469,04	6435,09
469,15	4001,70
469,26	3556,97
469,37	3996,96
469,48	5816,12
469,59	4326,67
469,70	3173,93
469,81	4068,59
469,92	2713,60
470,03	5013,20
470,14	3142,06
470,25	5299,75
470,36	4170,06
470,47	2901,39
470,58	2941,84
470,69	5109,92
470,80	5174,10
470,91	3269,07
471,02	3579,11
471,13	4347,23
471,24	4391,30
471,35	3575,05
471,46	6309,66
471,56	5381,55
471,67	5583,58
471,78	6042,10
471,89	2747,95
472,00	3393,13
472,11	4844,84
472,22	5445,28
472,33	3908,82
472,44	4276,95
472,55	3462,28
472,66	3988,60
472,77	3770,07
472,88	7497,66
472,99	5476,01
473,10	2895,07
473,21	3695,95
473,32	3730,30
473,42	3018,45
473,53	3257,09
473,64	4458,19
473,75	4556,49
473,86	4239,66
473,97	4595,59
474,08	4527,79
474,19	5418,39
474,30	7407,04
474,41	4683,04
474,52	3567,82
474,62	4189,27
474,73	3372,34
474,84	7038,01
474,95	4889,59
475,06	4941,79
475,17	3229,07
475,28	2740,72
475,39	4071,53
475,50	3204,21
475,60	3016,42
475,71	3175,96
475,82	5420,42
475,93	3256,86
476,04	5931,82
476,15	3720,58
476,26	4563,95
476,37	3507,48
476,47	3580,24
476,58	3475,16
476,69	2779,59
476,80	2790,21
476,91	3775,27
477,02	4197,18
477,13	4074,70
477,23	3341,61
477,34	4249,83
477,45	4488,47
477,56	3619,34
477,67	3571,66
477,78	4168,48
477,89	4041,48
477,99	3593,13
478,10	5026,76
478,21	4609,60
478,32	4161,02
478,43	3636,97
478,54	6880,50
478,64	4621,80
478,75	3994,25
478,86	3407,37
478,97	4014,58
479,08	3756,51
479,18	3173,93
479,29	3566,91
479,40	3034,27
479,51	2653,04
479,62	3344,54
479,72	3457,99
479,83	2882,86
479,94	4481,92
480,05	4504,29
480,16	3220,03
480,26	4414,35
480,37	3091,44
480,48	5001,90
480,59	4007,80
480,70	4084,64
480,80	3782,73
480,91	3243,08
481,02	2878,34
481,13	4296,84
481,24	4056,39
481,34	3075,63
481,45	7162,30
481,56	3560,58
481,67	3979,10
481,77	3556,97
481,88	3405,79
481,99	5075,57
482,10	4464,29
482,20	10744,12
482,31	3623,63
482,42	4591,07
482,53	3440,59
482,63	6017,24
482,74	5003,03
482,85	3172,57
482,96	3262,51
483,06	2856,20
483,17	4606,66
483,28	3135,28
483,39	3918,09
483,49	4890,94
483,60	7626,47
483,71	3312,68
483,81	5240,99
483,92	3855,27
484,03	3833,35
484,14	3519,91
484,24	3075,17
484,35	3835,38
484,46	4017,30
484,57	3428,16
484,67	4479,20
484,78	3433,58
484,89	7252,24
484,99	3479,46
485,10	3876,28
485,21	4488,47
485,31	4449,15
485,42	4311,30
485,53	3426,58
485,63	3801,71
485,74	6366,61
485,85	8381,25
485,96	19926,03
486,06	3913,12
486,17	3769,39
486,28	4370,28
486,38	2799,47
486,49	5114,67
486,60	3076,98
486,70	3145,23
486,81	3536,63
486,92	3226,58
487,02	3312,23
487,13	2591,12
487,24	3514,48
487,34	3159,46
487,45	6314,64
487,56	3833,57
487,66	3073,14
487,77	4196,50
487,87	3453,02
487,98	2671,79
488,09	3656,18
488,19	2567,16
488,30	7637,54
488,41	3469,51
488,51	2808,51
488,62	3185,68
488,73	3224,77
488,83	3982,04
488,94	4656,37
489,04	6272,38
489,15	3249,63
489,26	3004,67
489,36	4295,48
489,47	3484,43
489,58	3036,08
489,68	4478,30
489,79	3152,46
489,89	3980,01
490,00	3449,17
490,11	4344,52
490,21	4313,56
490,32	3036,30
490,42	3856,62
490,53	4027,01
490,64	2980,94
490,74	3085,57
490,85	2872,47
490,95	4961,68
491,06	4450,28
491,16	3239,46
491,27	4491,41
491,38	3400,81
491,48	7241,17
491,59	6376,56
491,69	4445,53
491,80	2694,39
491,90	5858,38
492,01	2908,62
492,12	4703,61
492,22	3486,46
492,33	5383,59
492,43	3934,13
492,54	2886,93
492,64	3082,63
492,75	3988,82
492,86	4173,22
492,96	3706,57
493,07	3255,96
493,17	4213,90
493,28	4770,72
493,38	4274,69
493,49	4135,48
493,59	4618,18
493,70	4093,45
493,80	3206,24
493,91	2928,96
494,01	3168,05
494,12	3342,51
494,22	5332,74
494,33	6222,44
494,43	5894,76
494,54	6545,59
494,64	4551,29
494,75	3198,11
494,86	5462,68
494,96	3167,60
495,07	3657,98
495,17	5732,50
495,28	3580,92
495,38	3201,27
495,49	3803,29
495,59	4428,36
495,69	3863,18
495,80	5844,14
495,90	3598,32
496,01	2930,32
496,11	4317,40
496,22	3614,59
496,32	2966,25
496,43	4971,39
496,53	3486,46
496,64	3641,26
496,74	4240,57
496,85	4726,43
496,95	4097,29
497,06	3362,62
497,16	4442,14
497,27	3758,32
497,37	5585,16
497,48	2947,04
497,58	2977,77
497,68	3446,69
497,79	5152,63
497,89	3413,24
498,00	3884,19
498,10	2831,79
498,21	5271,05
498,31	3372,57
498,42	3212,80
498,52	5409,80
498,62	3852,10
498,73	3959,67
498,83	4485,98
498,94	3325,79
499,04	5446,64
499,15	3585,22
499,25	3053,71
499,35	4837,16
499,46	6302,43
499,56	7254,50
499,67	4673,10
499,77	2704,56
499,87	3060,03
499,98	3247,60
500,08	2481,29
500,19	3362,85
500,29	3830,41
500,39	4432,65
500,50	5128,45
500,60	3877,41
500,71	3924,87
500,81	4008,03
500,91	2885,80
501,02	3424,54
501,12	4516,94
501,22	2937,55
501,33	4083,73
501,43	4843,04
501,54	2782,53
501,64	3268,16
501,74	3389,74
501,85	5767,98
501,95	3127,15
502,05	3146,36
502,16	3530,98
502,26	6068,99
502,37	4682,59
502,47	4131,42
502,57	3618,21
502,68	3194,49
502,78	3016,19
502,88	5178,62
502,99	3682,84
503,09	5143,37
503,19	3001,95
503,30	2738,69
503,40	3095,06
503,50	3389,97
503,61	3814,36
503,71	3519,68
503,81	3585,22
503,92	4048,93
504,02	5207,77
504,12	8965,64
504,23	5592,40
504,33	3683,74
504,43	3591,32
504,54	4955,58
504,64	4859,76
504,74	9032,98
504,84	4040,35
504,95	3440,59
505,05	2511,80
505,15	5761,43
505,26	2908,40
505,36	3329,63
505,46	3281,95
505,56	4465,42
505,67	4538,86
505,77	4354,91
505,87	3075,17
505,98	2662,75
506,08	3323,08
506,18	3758,09
506,28	4060,68
506,39	3758,32
506,49	3432,00
506,59	3422,06
506,70	2821,39
506,80	4088,71
506,90	6677,56
507,00	2672,25
507,11	4008,71
507,21	5118,28
507,31	4643,27
507,41	3956,73
507,52	3410,53
507,62	3712,90
507,72	6148,76
507,82	5328,67
507,93	3491,66
508,03	5134,33
508,13	4278,53
508,23	3726,23
508,34	4256,84
508,44	3058,90
508,54	3117,21
508,64	3902,04
508,74	2690,10
508,85	3294,83
508,95	3688,49
509,05	2780,94
509,15	3534,82
509,26	4332,09
509,36	3051,90
509,46	4000,12
509,56	2893,94
509,66	3803,29
509,77	3070,88
509,87	3397,88
509,97	3768,04
510,07	3954,92
510,17	2547,28
510,28	7719,57
510,38	5093,20
510,48	3414,15
510,58	4434,91
510,68	3955,38
510,78	3945,21
510,89	3295,73
510,99	2670,66
511,09	4942,02
511,19	4649,60
511,29	2858,68
511,39	5196,93
511,50	5436,47
511,60	2851,45
511,70	4724,62
511,80	5071,51
511,90	5427,43
512,00	3755,16
512,11	3123,53
512,21	3991,53
512,31	2782,53
512,41	6082,10
512,51	4092,10
512,61	7313,03
512,71	3284,89
512,82	3320,82
512,92	2513,38
513,02	4432,65
513,12	3529,17
513,22	3287,82
513,32	4975,01
513,42	4124,19
513,53	5279,64
513,63	4466,78
513,73	4871,96
513,83	2871,11
513,93	4490,28
514,03	4644,40
514,13	6005,27
514,23	3166,92
514,33	3532,79
514,44	3518,55
514,54	3397,42
514,64	6615,42
514,74	3547,93
514,84	3480,36
514,94	4870,61
515,04	4750,38
515,14	4109,27
515,24	4427,45
515,34	4170,74
515,44	2592,70
515,55	2553,61
515,65	4593,78
515,75	3282,17
515,85	3532,79
515,95	4679,88
516,05	5826,97
516,15	4349,26
516,25	2957,44
516,35	3180,71
516,45	3340,93
516,55	3214,38
516,65	3708,60
516,75	7045,46
516,85	4605,30
516,95	5063,60
517,05	5423,59
517,16	2984,55
517,26	7964,31
517,36	3314,94
517,46	2760,15
517,56	4213,00
517,66	3729,39
517,76	3308,84
517,86	3334,83
517,96	4534,57
518,06	3041,95
518,16	3157,66
518,26	4327,57
518,36	3046,47
518,46	3446,46
518,56	4890,94
518,66	5289,35
518,76	3981,36
518,86	5157,60
518,96	3108,39
519,06	3374,37
519,16	4540,90
519,26	4147,91
519,36	4556,26
519,46	4136,84
519,56	5925,04
519,66	7172,24
519,76	3383,64
519,86	3442,85
519,96	4225,43
520,06	3787,25
520,16	6670,11
520,26	4602,14
520,36	3501,60
520,46	3520,81
520,56	3406,69
520,66	3703,63
520,76	3379,80
520,86	3707,25
520,96	5731,15
521,06	4632,87
521,16	3175,74
521,26	3800,58
521,35	4730,95
521,45	3015,29
521,55	3617,31
521,65	4667,67
521,75	3527,14
521,85	2768,06
521,95	3984,08
522,05	2918,34
522,15	4840,10
522,25	25111,43
522,35	5514,21
522,45	3718,55
522,55	5178,85
522,65	4069,95
522,75	3354,26
522,85	3584,31
522,94	3845,77
523,04	4901,79
523,14	4324,41
523,24	3220,71
523,34	3359,69
523,44	4284,18
523,54	3463,86
523,64	3327,37
523,74	6296,78
523,84	4924,39
523,94	4592,42
524,03	2985,68
524,13	4375,25
524,23	4512,20
524,33	3206,24
524,43	3733,46
524,53	3931,20
524,63	3328,50
524,73	3581,60
524,83	2873,82
524,92	3557,87
525,02	2655,30
525,12	4818,40
525,22	3823,40
525,32	2924,67
525,42	5261,56
525,52	3837,41
525,61	4341,13
525,71	2574,17
525,81	4218,19
525,91	2889,87
526,01	3925,09
526,11	4008,26
526,21	4772,30
526,30	4239,66
526,40	3225,90
526,50	4219,55
526,60	4772,08
526,70	4684,62
526,80	4521,46
526,89	3461,38
526,99	3041,95
527,09	3987,69
527,19	4016,62
527,29	4751,29
527,39	3726,46
527,48	4321,47
527,58	4248,25
527,68	2816,20
527,78	5513,98
527,88	6975,41
527,97	3735,50
528,07	2996,76
528,17	5146,08
528,27	5452,51
528,37	3671,77
528,46	3087,60
528,56	6260,63
528,66	4701,35
528,76	2741,85
528,86	4995,57
528,95	3019,58
529,05	3920,12
529,15	3965,32
529,25	4840,55
529,35	5041,45
529,44	4612,99
529,54	5744,48
529,64	4526,21
529,74	3560,58
529,83	2973,26
529,93	3408,50
530,03	4282,37
530,13	3932,10
530,22	5520,76
530,32	5330,48
530,42	4867,89
530,52	2504,57
530,61	4981,34
530,71	2818,68
530,81	4942,24
530,91	3657,30
531,00	3572,11
531,10	3453,47
531,20	4310,17
531,30	3625,89
531,39	3852,78
531,49	3631,32
531,59	8589,83
531,69	6516,44
531,78	5270,37
531,88	6762,99
531,98	7099,70
532,07	5422,23
532,17	6386,05
532,27	6803,66
532,37	4796,71
532,46	4858,40
532,56	4290,06
532,66	2929,87
532,75	3731,20
532,85	4022,49
532,95	3763,29
533,04	3769,62
533,14	4186,33
533,24	4700,22
533,34	3409,63
533,43	4761,46
533,53	2573,49
533,63	4407,34
533,72	3569,85
533,82	2978,90
533,92	2929,41
534,01	8004,99
534,11	8885,42
534,21	4625,64
534,30	3448,27
534,40	3704,31
534,50	2686,48
534,59	3308,16
534,69	3045,57
534,79	4035,83
534,88	5839,62
534,98	5159,19
535,08	2445,13
535,17	4656,37
535,27	3480,13
535,36	3083,31
535,46	4401,01
535,56	2822,30
535,65	4401,92
535,75	4999,19
535,85	4100,68
535,94	3291,66
536,04	3723,29
536,14	4650,50
536,23	5840,98
536,33	3352,45
536,42	4080,57
536,52	3521,26
536,62	2625,69
536,71	4217,29
536,81	3848,26
536,90	3884,64
537,00	4070,40
537,10	3160,59
537,19	3888,26
537,29	4494,12
537,38	5293,19
537,48	3991,99
537,58	3813,23
537,67	3072,24
537,77	3489,17
537,86	3279,69
537,96	5574,99
538,06	3625,67
538,15	2978,00
538,25	6715,08
538,34	7536,52
538,44	6830,10
538,53	4553,55
538,63	5695,22
538,73	4880,78
538,82	3987,69
538,92	3806,00
539,01	7118,23
539,11	3145,91
539,20	7726,12
539,30	4962,13
539,39	3827,02
539,49	5116,25
539,59	5369,35
539,68	8579,21
539,78	8470,29
539,87	5771,37
539,97	6113,29
540,06	6191,48
540,16	4484,63
540,25	6055,21
540,35	7748,50
540,44	6247,75
540,54	7982,16
540,63	5770,92
540,73	5037,83
540,82	6454,75
540,92	5012,98
541,01	7319,13
541,11	7758,67
541,20	6218,82
541,30	6326,61
541,39	6989,87
541,49	6519,15
541,58	8634,35
541,68	8363,17
541,77	6701,97
541,87	5181,11
541,96	5180,88
542,06	7590,08
542,15	6861,74
542,25	8856,49
542,34	7553,02
542,44	5704,26
542,53	6360,74
542,63	7011,34
542,72	5969,56
542,82	5956,68
542,91	6658,13
543,01	5809,79
543,10	7663,53
543,20	6485,03
543,29	7029,65
543,38	5757,14
543,48	6422,20
543,57	6146,05
543,67	6068,09
543,76	6395,54
543,86	6294,30
543,95	7341,05
544,05	9510,71
544,14	10667,29
544,23	6829,65
544,33	6199,16
544,42	7741,04
544,52	6406,61
544,61	7076,88
544,71	9219,87
544,80	10021,66
544,89	9109,59
544,99	7436,41
545,08	8782,82
545,18	5660,64
545,27	10978,02
545,36	9171,51
545,46	7842,96
545,55	6612,03
545,65	7010,44
545,74	6464,69
545,84	5705,16
545,93	7086,82
546,02	6562,09
546,12	8267,81
546,21	8045,66
546,30	7183,54
546,40	7470,09
546,49	6174,53
546,59	7441,16
546,68	6385,59
546,77	8346,00
546,87	7318,90
546,96	8375,15
547,05	7500,59
547,15	6123,23
547,24	6887,28
547,34	6172,49
547,43	7015,63
547,52	8540,79
547,62	7588,05
547,71	7943,97
547,80	7797,31
547,90	6831,01
547,99	9780,08
548,08	7481,61
548,18	5480,53
548,27	6061,76
548,36	6007,53
548,46	6322,55
548,55	6240,74
548,64	7296,08
548,74	6019,05
548,83	7152,81
548,92	9830,70
549,02	6135,66
549,11	11124,45
549,20	7954,82
549,30	6484,80
549,39	7094,73
549,48	7419,01
549,58	5853,18
549,67	7635,05
549,76	7061,51
549,85	5826,51
549,95	6699,94
550,04	8012,44
550,13	5728,66
550,23	7841,38
550,32	6153,96
550,41	5985,61
550,50	7410,88
550,60	9535,79
550,69	6849,54
550,78	5659,29
550,88	8226,90
550,97	7853,35
551,06	6823,32
551,15	6944,68
551,25	9304,61
551,34	5810,92
551,43	6582,20
551,52	7381,05
551,62	8315,26
551,71	8600,90
551,80	8213,80
551,89	7232,58
551,99	6647,73
552,08	6798,69
552,17	6251,14
552,26	7577,65
552,36	5521,89
552,45	5687,99
552,54	5580,19
552,63	7602,06
552,73	10043,35
552,82	9748,22
552,91	7136,31
553,00	11587,49
553,10	7131,11
553,19	9896,24
553,28	6531,13
553,37	8306,90
553,46	5923,23
553,56	8284,30
553,65	6052,50
553,74	5804,59
553,83	7520,71
553,92	6856,32
554,02	7595,73
554,11	6699,48
554,20	5739,96
554,29	9652,85
554,38	6387,85
554,48	6734,96
554,57	6243,68
554,66	6381,53
554,75	7708,95
554,84	7805,22
554,94	7257,21
555,03	6165,71
555,12	5637,59
555,21	5811,82
555,30	10194,08
555,39	5980,86
555,49	6282,09
555,58	7472,57
555,67	8078,21
555,76	8659,66
555,85	5918,26
555,94	5836,23
556,03	6618,81
556,13	6965,47
556,22	6653,84
556,31	7084,79
556,40	5565,50
556,49	8363,62
556,58	6743,55
556,67	6821,29
556,77	6406,39
556,86	9220,55
556,95	7956,40
557,04	9634,77
557,13	9919,29
557,22	9013,32
557,31	7553,02
557,40	7112,58
557,50	9846,07
557,59	6668,75
557,68	7005,01
557,77	9851,72
557,86	8418,99
557,95	8243,40
558,04	7963,86
558,13	8109,84
558,22	8280,01
558,31	7243,65
558,41	6213,40
558,50	8282,95
558,59	8335,37
558,68	8777,17
558,77	8299,67
558,86	5624,48
558,95	5438,28
559,04	7167,50
559,13	8710,05
559,22	6008,43
559,31	6396,89
559,40	5890,92
559,49	6146,73
559,59	7919,57
559,68	5326,87
559,77	9114,79
559,86	9960,87
559,95	6845,92
560,04	6523,44
560,13	7236,65
560,22	10396,79
560,31	7166,14
560,40	7084,56
560,49	5281,90
560,58	6061,31
560,67	5514,66
560,76	5614,99
560,85	5031,96
560,94	8571,75
561,03	5876,46
561,12	12279,23
561,21	10851,47
561,30	6570,90
561,39	6415,65
561,48	6718,69
561,57	5325,28
561,66	7533,14
561,75	9657,37
561,84	6114,87
561,93	6153,28
562,02	6407,97
562,11	5469,01
562,20	5750,58
562,29	6652,25
562,38	4988,12
562,47	8038,21
562,56	6924,11
562,65	6026,96
562,74	6513,50
562,83	12095,95
562,92	7513,70
563,01	9357,04
563,10	5762,79
563,19	7040,27
563,28	13257,73
563,37	8679,32
563,46	5706,97
563,55	6336,33
563,64	11977,09
563,73	5648,21
563,82	7438,90
563,91	9775,79
564,00	6745,81
564,09	5767,08
564,18	7128,85
564,27	5519,85
564,35	7543,98
564,44	6913,49
564,53	8214,25
564,62	7940,81
564,71	7210,21
564,80	7241,39
564,89	7482,52
564,98	42673,00
565,07	7727,48
565,16	5513,08
565,25	15789,19
565,34	5930,24
565,43	6163,00
565,51	5560,31
565,60	9082,70
565,69	5734,54
565,78	9253,09
565,87	4702,70
565,96	4462,26
566,05	7326,36
566,14	8603,16
566,23	7015,63
566,32	8974,00
566,40	7781,49
566,49	8985,75
566,58	5612,96
566,67	6301,08
566,76	5354,21
566,85	5687,76
566,94	6525,48
567,03	7305,12
567,11	5999,84
567,20	6084,36
567,29	8472,55
567,38	7205,46
567,47	4942,47
567,56	6339,04
567,65	6490,90
567,73	5057,27
567,82	5038,96
567,91	6848,41
568,00	6119,16
568,09	7167,27
568,18	5295,68
568,27	6037,81
568,35	6428,98
568,44	7402,07
568,53	6748,30
568,62	5080,32
568,71	4955,80
568,80	5455,68
568,88	7458,33
568,97	8570,62
569,06	4916,93
569,15	5549,01
569,24	6852,02
569,32	7169,98
569,41	6224,70
569,50	4818,63
569,59	4674,91
569,68	4947,44
569,76	6158,03
569,85	6975,86
569,94	7999,79
570,03	5200,54
570,12	7146,03
570,20	6225,82
570,29	7039,36
570,38	6735,19
570,47	6768,41
570,56	4855,01
570,64	5747,87
570,73	5945,83
570,82	8743,27
570,91	7534,72
570,99	4958,51
571,08	4821,12
571,17	5352,63
571,26	7910,53
571,34	5290,48
571,43	6490,00
571,52	6807,96
571,61	4910,83
571,69	4782,25
571,78	7180,15
571,87	7815,39
571,96	7590,76
572,04	7232,80
572,13	7271,90
572,22	4991,06
572,31	4709,71
572,39	5006,20
572,48	6250,46
572,57	5460,87
572,66	5033,31
572,74	4444,40
572,83	6553,27
572,92	5452,96
573,00	4665,64
573,09	6794,17
573,18	7363,20
573,27	6960,49
573,35	5020,43
573,44	4617,05
573,53	5746,74
573,61	5786,06
573,70	6435,09
573,79	4956,25
573,87	9220,77
573,96	5121,45
574,05	5656,57
574,14	5659,74
574,22	5097,49
574,31	7100,15
574,40	4525,76
574,48	5834,20
574,57	6049,33
574,66	5501,32
574,74	5670,13
574,83	7669,18
574,92	7754,82
575,00	5511,49
575,09	7635,73
575,18	5287,54
575,26	8489,27
575,35	5633,07
575,43	5428,11
575,52	7037,10
575,61	6630,79
575,69	7353,25
575,78	5244,61
575,87	9675,68
575,95	6839,59
576,04	5278,05
576,13	6635,53
576,21	5678,49
576,30	6873,72
576,38	6655,64
576,47	5913,29
576,56	5701,54
576,64	6089,78
576,73	7594,38
576,82	7147,16
576,90	6292,04
576,99	6299,27
577,07	5477,60
577,16	5718,95
577,25	6772,93
577,33	9847,88
577,42	6197,35
577,50	5114,44
577,59	6674,85
577,68	7882,73
577,76	5916,91
577,85	5659,06
577,93	6137,92
578,02	6227,41
578,10	5798,94
578,19	6034,64
578,28	5356,02
578,36	5671,26
578,45	5923,69
578,53	4637,62
578,62	5025,63
578,70	4890,94
578,79	5557,59
578,88	5796,23
578,96	4722,81
579,05	4811,40
579,13	8927,90
579,22	6317,57
579,30	5271,27
579,39	6493,16
579,47	8431,42
579,56	5118,28
579,64	13697,94
579,73	5447,54
579,82	6377,23
579,90	4790,61
579,99	4995,35
580,07	6368,87
580,16	5855,89
580,24	7019,48
580,33	4085,54
580,41	5899,28
580,50	4515,14
580,58	5591,49
580,67	5256,58
580,75	5598,27
580,84	5514,21
580,92	4523,04
581,01	8538,98
581,09	4744,28
581,18	5347,20
581,26	4824,28
581,35	4327,80
581,43	6935,18
581,52	5508,10
581,60	6168,88
581,69	5512,62
581,77	5996,23
581,86	6198,03
581,94	5326,64
582,02	6010,69
582,11	4456,83
582,19	7868,49
582,28	9347,55
582,36	8925,19
582,45	8972,65
582,53	4861,12
582,62	4970,49
582,70	4759,20
582,79	6299,04
582,87	4674,91
582,96	6197,35
583,04	8112,56
583,12	6077,81
583,21	5882,11
583,29	6227,63
583,38	6251,81
583,46	5394,43
583,55	5838,04
583,63	4464,74
583,71	6347,86
583,80	5703,80
583,88	4383,84
583,97	10035,22
584,05	6265,60
584,13	6845,92
584,22	6557,12
584,30	5097,72
584,39	6619,26
584,47	7087,50
584,55	4688,69
584,64	5796,91
584,72	5979,96
584,81	4245,99
584,89	4605,08
584,97	4511,97
585,06	4469,49
585,14	5446,18
585,23	5927,98
585,31	4070,40
585,39	5067,66
585,48	5758,04
585,56	4160,79
585,64	6014,08
585,73	5462,68
585,81	5300,43
585,90	6482,99
585,98	4912,19
586,06	5133,88
586,15	7661,27
586,23	4074,02
586,31	4627,00
586,40	4252,54
586,48	7273,03
586,56	4507,90
586,65	4564,85
586,73	4434,01
586,81	6111,93
586,90	4942,92
586,98	3919,22
587,06	3965,09
587,15	4955,12
587,23	4863,60
587,31	5259,52
587,40	4493,44
587,48	4168,70
587,56	7057,89
587,65	9764,26
587,73	6318,48
587,81	5727,76
587,90	8402,04
587,98	5377,49
588,06	4442,14
588,14	4335,25
588,23	4726,20
588,31	7584,43
588,39	6259,27
588,48	5012,07
588,56	4445,31
588,64	5811,60
588,72	5507,88
588,81	4703,61
588,89	5027,89
588,97	5243,03
589,06	7197,10
589,14	6985,81
589,22	5584,71
589,30	4953,09
589,39	4444,63
589,47	6243,68
589,55	8038,88
589,63	5542,45
589,72	4725,07
589,80	4590,16
589,88	5900,64
589,96	6603,67
590,05	5400,54
590,13	5498,61
590,21	6795,75
590,29	7478,22
590,38	6287,29
590,46	7068,29
590,54	4079,89
590,62	4481,69
590,71	6674,40
590,79	7173,14
590,87	3895,49
590,95	4183,84
591,03	4869,02
591,12	5537,48
591,20	4679,65
591,28	8097,64
591,36	5774,54
591,44	4896,37
591,53	5187,89
591,61	5089,81
591,69	4352,88
591,77	5407,32
591,85	5443,70
591,94	4318,76
592,02	4607,56
592,10	6430,79
592,18	6345,82
592,26	5099,30
592,34	4100,68
592,43	3750,41
592,51	3924,87
592,59	4366,21
592,67	6103,12
592,75	4489,60
592,84	4946,31
592,92	6539,49
593,00	4612,53
593,08	4698,18
593,16	4060,68
593,24	4508,58
593,32	6132,95
593,41	5258,84
593,49	3876,28
593,57	4437,85
593,65	4314,46
593,73	5523,70
593,81	5756,23
593,89	6549,66
593,98	4875,80
594,06	4123,28
594,14	4180,00
594,22	4434,91
594,30	4436,04
594,38	4767,78
594,46	6599,83
594,54	6383,56
594,62	6143,79
594,71	4839,42
594,79	4371,18
594,87	4873,32
594,95	4962,13
595,03	6570,00
595,11	5049,58
595,19	7709,85
595,27	4852,53
595,35	4361,92
595,43	4279,89
595,52	4541,58
595,60	4638,52
595,68	8323,17
595,76	4019,33
595,84	5905,38
595,92	4133,22
596,00	7158,91
596,08	6516,44
596,16	5245,51
596,24	4912,19
596,32	4636,49
596,40	5855,67
596,48	5783,58
596,56	5718,27
596,64	4053,23
596,73	7133,82
596,81	4401,92
596,89	5474,21
596,97	3687,13
597,05	10590,23
597,13	4724,40
597,21	3787,70
597,29	4684,62
597,37	6819,03
597,45	5640,30
597,53	4276,72
597,61	5309,46
597,69	5972,95
597,77	4792,64
597,85	4403,73
597,93	5104,95
598,01	4698,41
598,09	6233,51
598,17	4905,41
598,25	5138,17
598,33	3763,52
598,41	4583,83
598,49	3759,45
598,57	4169,61
598,65	4728,69
598,73	5006,65
598,81	6288,42
598,89	4852,75
598,97	3982,95
599,05	6914,85
599,13	4567,11
599,21	4091,87
599,29	5100,20
599,37	4597,39
599,45	4223,17
599,53	7393,93
599,61	4279,89
599,69	5528,67
599,77	4701,35
599,85	4172,09
599,93	4513,55
600,00	3870,18
600,08	5732,96
600,16	3500,92
600,24	3854,81
600,32	7314,16
600,40	7895,16
600,48	6855,64
600,56	6445,25
600,64	6514,63
600,72	4792,19
600,80	5006,65
600,88	4725,07
600,96	6650,45
601,04	3866,79
601,12	4200,79
601,19	3383,87
601,27	4367,12
601,35	4861,57
601,43	4109,04
601,51	5165,74
601,59	4156,95
601,67	3776,62
601,75	4308,59
601,83	4986,08
601,91	3609,62
601,98	3862,05
602,06	6365,48
602,14	5165,74
602,22	5447,77
602,30	6023,57
602,38	5040,32
602,46	3913,57
602,54	6476,89
602,61	5475,11
602,69	5202,80
602,77	3554,26
602,85	3881,93
602,93	3904,08
603,01	4861,57
603,09	6426,95
603,17	4378,87
603,24	5473,30
603,32	3619,34
603,40	4914,67
603,48	5603,47
603,56	3526,01
603,64	4825,41
603,71	3850,52
603,79	4692,31
603,87	5866,06
603,95	8843,16
604,03	4477,62
604,11	6292,94
604,18	5212,52
604,26	4078,76
604,34	3560,13
604,42	5119,64
604,50	3926,45
604,57	3955,83
604,65	4507,68
604,73	4644,40
604,81	4965,97
604,89	3880,58
604,96	4393,56
605,04	5411,61
605,12	4376,38
605,20	5829,90
605,28	6868,29
605,35	4852,53
605,43	5035,57
605,51	4332,09
605,59	5905,16
605,67	7981,49
605,74	4530,28
605,82	4851,62
605,90	3798,77
605,98	5594,20
606,05	4673,10
606,13	5627,65
606,21	4903,15
606,29	4426,78
606,36	4688,24
606,44	3976,84
606,52	4834,45
606,60	4441,24
606,67	3404,20
606,75	4135,48
606,83	3253,47
606,91	5918,26
606,98	3843,97
607,06	4695,47
607,14	4353,33
607,22	4318,76
607,29	3929,84
607,37	4732,53
607,45	5344,49
607,52	5723,01
607,60	5627,42
607,68	4542,48
607,76	5273,99
607,83	3254,15
607,91	5354,89
607,99	5167,77
608,06	4987,21
608,14	4210,74
608,22	4522,14
608,30	6572,26
608,37	3737,53
608,45	3100,03
608,53	4847,78
608,60	4974,56
608,68	3856,17
608,76	4231,98
608,83	5611,15
608,91	3619,34
608,99	5640,98
609,06	4951,51
609,14	5479,86
609,22	4382,94
609,29	3834,93
609,37	3384,54
609,45	5975,66
609,52	3702,50
609,60	3723,07
609,68	3904,76
609,75	4537,96
609,83	3149,07
609,91	7666,69
609,98	4218,19
610,06	3979,78
610,13	5289,58
610,21	4750,16
610,29	4724,85
610,36	3293,70
610,44	3936,62
610,52	4522,14
610,59	3601,49
610,67	3467,48
610,74	4484,40
610,82	3723,07
610,90	5021,11
610,97	4078,08
611,05	5221,11
611,13	4786,09
611,20	6956,65
611,28	3775,49
611,35	4389,49
611,43	3184,78
611,51	5015,69
611,58	4724,85
611,66	6649,32
611,73	3636,74
611,81	6478,02
611,88	4946,76
611,96	5589,23
612,04	3595,84
612,11	3487,14
612,19	6983,77
612,26	4133,68
612,34	4522,59
612,41	4309,27
612,49	3094,38
612,57	3164,44
612,64	3525,33
612,72	6375,65
612,79	7810,87
612,87	3181,84
612,94	3070,43
613,02	4573,89
613,09	4201,02
613,17	5170,49
613,24	3979,56
613,32	5615,90
613,40	3878,32
613,47	4200,79
613,55	3402,85
613,62	5873,07
613,70	6170,23
613,77	3757,42
613,85	5844,82
613,92	4176,16
614,00	3388,39
614,07	3962,83
614,15	3029,30
614,22	3327,82
614,30	4864,50
614,37	3310,87
614,45	3918,77
614,52	3561,94
614,60	4028,59
614,67	5458,16
614,75	3075,40
614,82	5124,61
614,90	3799,67
614,97	3399,91
615,05	6684,34
615,12	5485,28
615,20	4408,92
615,27	4375,93
615,34	4253,00
615,42	3458,44
615,49	4270,85
615,57	3216,41
615,64	3512,90
615,72	3756,51
615,79	3708,83
615,87	4827,44
615,94	6116,22
616,02	4592,87
616,09	6020,41
616,16	4828,80
616,24	4416,38
616,31	3323,98
616,39	7376,30
616,46	5868,55
616,54	4622,25
616,61	6918,46
616,68	3384,32
616,76	4133,00
616,83	4966,42
616,91	3707,70
616,98	3481,94
617,06	5739,28
617,13	3604,88
617,20	3824,98
617,28	4264,75
617,35	3338,90
617,43	5995,10
617,50	3770,30
617,57	4187,01
>>>>>End Processed Spectral Data<<<<<
