SpectraSuite Datei
++++++++++++++++++++++++++++++++++++
Datum: Thu Jan 01 07:35:39 CET 2004
Benutzer: H. Stützler
Dark-Spektrum vorhanden: Nein
Referenz-Spektrum vorhanden: Nein
Zahl der probierten Teilspektren: 1
Spektrometer: USB2+H04734
Integrationszeit (usec): 2000000 (USB2+H04734)
Spektren Durchschnitt berechnet: 5 (USB2+H04734)
Boxcar Glättung: 0 (USB2+H04734)
Dunkelstromkorrektur: Nein (USB2+H04734)
Puls/Lampe aktiviert: Nein (USB2+H04734)
Correct for Detector Non-linearity: Nein (USB2+H04734)
Streulichtkorrektur: Nein (USB2+H04734)
Anzahl Pixel in verarbeitetem Spektrum: 2048
>>>>>Begin Processed Spectral Data<<<<<
418,45	1392,05
418,57	1392,05
418,69	1392,05
418,80	1303,02
418,92	1306,18
419,04	1698,49
419,16	1408,78
419,28	1434,99
419,40	1382,56
419,52	1443,58
419,64	1401,55
419,75	1441,32
419,87	1420,98
419,99	1415,56
420,11	1422,79
420,23	1444,48
420,35	1529,90
420,47	1498,72
420,58	1457,59
420,70	1497,81
420,82	1525,84
420,94	1579,17
421,06	1668,20
421,18	1592,73
421,29	1584,59
421,41	1566,06
421,53	1604,48
421,65	1720,18
421,77	1745,49
421,89	1621,65
422,00	1765,38
422,12	1651,03
422,24	1639,28
422,36	1763,57
422,48	1756,34
422,59	1690,35
422,71	1759,50
422,83	1597,25
422,95	1631,14
423,07	1763,12
423,18	1820,97
423,30	1745,49
423,42	1656,91
423,54	1704,81
423,66	1666,85
423,77	1675,44
423,89	1683,57
424,01	1629,79
424,13	1618,49
424,25	1633,40
424,36	1694,87
424,48	1678,60
424,60	1632,95
424,72	1799,27
424,84	1632,50
424,95	1771,70
425,07	1698,03
425,19	1660,97
425,31	1700,29
425,42	1610,35
425,54	1703,91
425,66	1689,00
425,78	1630,69
425,89	1682,22
426,01	1679,50
426,13	1692,16
426,25	1771,25
426,36	1677,24
426,48	1749,56
426,60	1734,64
426,72	1678,60
426,83	1717,92
426,95	1725,15
427,07	1691,71
427,19	1858,48
427,30	1653,74
427,42	1617,13
427,54	1588,21
427,66	1642,44
427,77	1603,57
427,89	1670,01
428,01	1686,28
428,12	1740,97
428,24	1605,38
428,36	1632,95
428,48	1588,21
428,59	1586,40
428,71	1695,77
428,83	1591,82
428,94	1630,24
429,06	1635,21
429,18	1711,59
429,30	1712,05
429,41	1649,67
429,53	1769,45
429,65	1751,82
429,76	1708,88
429,88	1661,43
430,00	1699,39
430,11	1809,67
430,23	1672,72
430,35	1856,67
430,47	1659,17
430,58	1637,92
430,70	1764,93
430,82	1728,77
430,93	1975,54
431,05	1693,97
431,17	1667,75
431,28	1770,80
431,40	1651,48
431,52	1814,19
431,63	1625,27
431,75	1641,99
431,87	1651,48
431,98	1756,34
432,10	1694,87
432,22	1657,81
432,33	1794,30
432,45	1710,69
432,56	1672,27
432,68	1736,00
432,80	1656,00
432,91	1732,38
433,03	1681,31
433,15	1794,30
433,26	1683,12
433,38	1680,86
433,50	1604,48
433,61	1756,34
433,73	1809,67
433,84	1676,79
433,96	1615,78
434,08	1701,20
434,19	1700,29
434,31	1693,97
434,43	1695,32
434,54	1678,60
434,66	1609,45
434,77	1613,52
434,89	1731,93
435,01	1708,88
435,12	1625,27
435,24	1655,10
435,35	1658,26
435,47	1862,55
435,59	1717,47
435,70	1638,38
435,82	1712,50
435,93	1803,34
436,05	1684,48
436,17	1687,19
436,28	1736,45
436,40	1707,98
436,51	1632,05
436,63	1699,84
436,74	1775,77
436,86	1831,82
436,98	2077,69
437,09	1692,16
437,21	1745,94
437,32	1611,26
437,44	1734,19
437,55	1685,38
437,67	2272,48
437,79	1906,39
437,90	1736,90
438,02	1664,59
438,13	3648,72
438,25	1876,56
438,36	1766,28
438,48	1730,12
438,59	1781,65
438,71	1716,57
438,83	1661,43
438,94	1656,91
439,06	1778,94
439,17	1775,77
439,29	1664,59
439,40	1738,71
439,52	1682,22
439,63	1746,85
439,75	1646,06
439,86	1642,44
439,98	1686,74
440,09	1778,94
440,21	1690,35
440,32	1654,19
440,44	1625,27
440,55	1717,02
440,67	1685,83
440,78	1810,57
440,90	1660,52
441,01	1678,60
441,13	1646,06
441,24	1703,91
441,36	1816,00
441,47	1654,65
441,59	1774,87
441,70	1650,13
441,82	1754,98
441,93	1731,03
442,05	1600,41
442,16	1681,76
442,28	1652,39
442,39	1682,67
442,51	1759,50
442,62	1657,36
442,74	1788,88
442,85	1684,02
442,97	1855,32
443,08	1755,43
443,20	1757,24
443,31	1711,14
443,43	1686,28
443,54	1761,76
443,66	1638,38
443,77	1695,77
443,88	1631,60
444,00	1736,90
444,11	1769,90
444,23	1802,44
444,34	1612,61
444,46	1672,27
444,57	1794,76
444,69	1781,20
444,80	1734,19
444,91	1924,02
445,03	1641,09
445,14	1778,03
445,26	1617,13
445,37	1689,90
445,49	1704,81
445,60	1813,29
445,71	1871,14
445,83	1676,79
445,94	1661,43
446,06	1773,51
446,17	1638,38
446,29	1654,65
446,40	1684,48
446,51	1823,23
446,63	1703,46
446,74	1680,86
446,86	1667,30
446,97	1798,82
447,08	1702,55
447,20	1660,52
447,31	1638,38
447,43	1728,77
447,54	1716,57
447,65	1765,83
447,77	1684,93
447,88	1693,51
448,00	1721,54
448,11	1645,61
448,22	1676,79
448,34	1743,23
448,45	1601,77
448,56	1673,18
448,68	1714,76
448,79	1869,78
448,90	1770,80
449,02	1668,20
449,13	1705,27
449,25	1769,90
449,36	1698,94
449,47	1713,40
449,59	1824,58
449,70	1724,70
449,81	1687,19
449,93	1692,61
450,04	1676,79
450,15	1700,75
450,27	1726,51
450,38	1760,41
450,49	1691,71
450,61	1858,93
450,72	1720,18
450,83	1795,66
450,95	1712,95
451,06	1755,89
451,17	1854,41
451,29	1784,81
451,40	1657,81
451,51	1678,60
451,63	1635,66
451,74	1786,62
451,85	1673,63
451,97	1790,24
452,08	1726,06
452,19	1658,26
452,31	1859,84
452,42	1716,11
452,53	1830,46
452,65	1819,61
452,76	1662,33
452,87	1682,67
452,98	1670,46
453,10	1709,33
453,21	1661,88
453,32	1682,22
453,44	1666,85
453,55	1650,13
453,66	1944,81
453,77	1746,85
453,89	1771,70
454,00	1858,48
454,11	1733,29
454,23	1724,25
454,34	1708,43
454,45	1669,11
454,56	1787,07
454,68	1911,81
454,79	1720,18
454,90	1724,25
455,01	1684,48
455,13	1666,40
455,24	1837,24
455,35	1679,05
455,46	1659,17
455,58	1680,41
455,69	1827,75
455,80	1781,20
455,91	1630,69
456,03	1725,15
456,14	1796,11
456,25	1687,19
456,36	1658,26
456,48	1694,87
456,59	1862,55
456,70	1692,61
456,81	1802,44
456,92	1914,53
457,04	1792,04
457,15	1907,29
457,26	1679,96
457,37	1729,67
457,49	1698,49
457,60	1677,24
457,71	1750,01
457,82	1768,99
457,93	1713,40
458,05	1852,61
458,16	1686,28
458,27	1729,22
458,38	1736,00
458,49	1785,72
458,61	1708,43
458,72	1770,80
458,83	1712,05
458,94	1774,42
459,05	1762,67
459,17	2152,71
459,28	1723,80
459,39	1741,42
459,50	1674,53
459,61	1850,35
459,72	1684,02
459,84	1676,34
459,95	1729,22
460,06	2121,07
460,17	1694,87
460,28	1721,99
460,39	1714,31
460,51	1761,31
460,62	1714,76
460,73	1729,67
460,84	1677,24
460,95	1841,31
461,06	1884,70
461,18	1850,35
461,29	1830,91
461,40	1748,65
461,51	1792,50
461,62	2004,47
461,73	1764,47
461,84	1807,86
461,96	1777,13
462,07	1811,93
462,18	1709,79
462,29	1735,10
462,40	1830,01
462,51	1709,33
462,62	1905,03
462,73	1893,28
462,85	1803,79
462,96	1799,73
463,07	1818,26
463,18	1944,36
463,29	1814,19
463,40	1712,05
463,51	1698,03
463,62	1719,28
463,73	1830,91
463,85	1715,21
463,96	1780,29
464,07	1792,95
464,18	1755,43
464,29	1703,01
464,40	1864,36
464,51	1782,55
464,62	1748,20
464,73	1693,97
464,84	1806,96
464,95	1749,11
465,06	1738,26
465,18	1705,72
465,29	1797,01
465,40	1739,16
465,51	1763,12
465,62	1807,41
465,73	1738,26
465,84	1779,84
465,95	1788,88
466,06	1742,78
466,17	1773,06
466,28	1771,70
466,39	1878,82
466,50	1701,65
466,61	1673,63
466,72	1801,08
466,83	1686,74
466,95	1734,19
467,06	1660,07
467,17	1753,17
467,28	1763,12
467,39	1738,71
467,50	1835,43
467,61	1672,27
467,72	1733,74
467,83	1746,85
467,94	1807,41
468,05	1698,94
468,16	1811,48
468,27	1791,59
468,38	1699,84
468,49	1850,35
468,60	1710,69
468,71	1894,19
468,82	1882,89
468,93	1854,87
469,04	1922,21
469,15	1775,32
469,26	1775,77
469,37	1768,99
469,48	1913,62
469,59	1784,36
469,70	1726,51
469,81	1784,36
469,92	1735,10
470,03	1832,27
470,14	1766,28
470,25	1864,36
470,36	1803,79
470,47	1727,86
470,58	1731,93
470,69	1851,70
470,80	1848,54
470,91	1758,15
471,02	1736,00
471,13	1793,40
471,24	1794,30
471,35	1778,48
471,46	1947,07
471,56	1907,75
471,67	1915,88
471,78	1881,08
471,89	1716,57
472,00	1767,64
472,11	1804,70
472,22	1874,75
472,33	1809,22
472,44	1817,81
472,55	1758,60
472,66	1761,31
472,77	1721,08
472,88	1969,21
472,99	1866,62
473,10	1727,41
473,21	1780,29
473,32	1756,34
473,42	1741,42
473,53	1731,48
473,64	1834,98
473,75	1772,61
473,86	1792,95
473,97	1821,87
474,08	1820,52
474,19	1838,60
474,30	1969,67
474,41	1803,34
474,52	1791,14
474,62	1803,34
474,73	1792,50
474,84	1962,43
474,95	1827,75
475,06	1848,54
475,17	1759,50
475,28	1736,00
475,39	1805,15
475,50	1746,85
475,60	1734,64
475,71	1763,57
475,82	1868,88
475,93	1775,77
476,04	1907,75
476,15	1767,64
476,26	1849,44
476,37	1803,34
476,47	1773,51
476,58	1777,58
476,69	1746,85
476,80	1759,95
476,91	1781,65
477,02	1831,82
477,13	1831,82
477,23	1789,78
477,34	1839,05
477,45	1860,29
477,56	1798,37
477,67	1800,63
477,78	1819,16
477,89	1821,87
477,99	1784,36
478,10	1881,08
478,21	1868,43
478,32	1829,56
478,43	1803,79
478,54	1981,42
478,64	1895,54
478,75	1843,57
478,86	1839,50
478,97	1808,77
479,08	1839,50
479,18	1794,30
479,29	1794,76
479,40	1799,73
479,51	1760,41
479,62	1821,42
479,72	1831,36
479,83	1787,52
479,94	1896,45
480,05	1870,23
480,16	1777,13
480,26	1889,67
480,37	1808,77
480,48	1936,67
480,59	1846,73
480,70	1835,88
480,80	1826,84
480,91	1823,68
481,02	1787,52
481,13	1866,17
481,24	1880,18
481,34	1816,90
481,45	2057,80
481,56	1827,30
481,67	1851,25
481,77	1840,40
481,88	1833,17
481,99	1953,85
482,10	1921,76
482,20	2383,67
482,31	1864,81
482,42	1876,11
482,53	1870,23
482,63	2026,16
482,74	1969,21
482,85	1824,13
482,96	1834,98
483,06	1809,22
483,17	1929,44
483,28	1861,19
483,39	1867,07
483,49	1972,83
483,60	2133,73
483,71	1844,02
483,81	1938,93
483,92	1868,88
484,03	1887,41
484,14	1858,48
484,24	1872,95
484,35	1911,36
484,46	1907,29
484,57	1883,34
484,67	1915,88
484,78	1874,75
484,89	2110,23
484,99	1845,38
485,10	1922,21
485,21	1939,38
485,31	1953,85
485,42	1949,33
485,53	1891,93
485,63	1941,19
485,74	2097,57
485,85	2182,54
485,96	2105,26
486,06	1924,47
486,17	1912,27
486,28	1943,90
486,38	1836,34
486,49	1992,72
486,60	1869,78
486,70	1873,40
486,81	1890,12
486,92	1901,87
487,02	1876,56
487,13	1852,61
487,24	1906,84
487,34	1886,05
487,45	2098,02
487,56	1916,79
487,66	1915,88
487,77	1973,28
487,87	1931,25
487,98	1877,46
488,09	1946,62
488,19	1864,81
488,30	2179,38
488,41	1930,34
488,51	1883,79
488,62	1905,94
488,73	1889,22
488,83	1963,79
488,94	2010,79
489,04	2118,81
489,15	1913,17
489,26	1945,71
489,36	2020,29
489,47	1965,60
489,58	1952,49
489,68	2042,88
489,79	1963,34
489,89	2006,73
490,00	1976,45
490,11	2029,33
490,21	2022,09
490,32	1931,70
490,42	1972,38
490,53	1958,82
490,64	1940,74
490,74	1922,21
490,85	1920,40
490,95	2094,41
491,06	2015,31
491,16	1962,89
491,27	2029,33
491,38	1983,68
491,48	2180,73
491,59	2162,20
491,69	2013,51
491,80	1933,06
491,90	2136,44
492,01	1937,12
492,12	2079,49
492,22	2009,44
492,33	2129,66
492,43	1994,52
492,54	1927,18
492,64	1972,83
492,75	2087,18
492,86	2048,76
492,96	2028,42
493,07	1987,29
493,17	2051,02
493,28	2107,97
493,38	2060,06
493,49	2054,64
493,59	2079,49
493,70	2103,45
493,80	2013,05
493,91	1974,19
494,01	2019,38
494,12	2020,74
494,22	2137,80
494,33	2203,33
494,43	2173,05
494,54	2199,26
494,64	2107,06
494,75	2048,76
494,86	2175,31
494,96	2013,05
495,07	2050,57
495,17	2208,76
495,28	2073,62
495,38	2040,62
495,49	2100,28
495,59	2121,98
495,69	2055,54
495,80	2206,04
495,90	2110,23
496,01	2066,84
496,11	2165,37
496,22	2104,80
496,32	2070,00
496,43	2192,94
496,53	2097,57
496,64	2141,41
496,74	2134,18
496,85	2190,22
496,95	2155,42
497,06	2154,97
497,16	2200,62
497,27	2116,10
497,37	2239,49
497,48	2041,98
497,58	2101,64
497,68	2089,44
497,79	2219,15
497,89	2099,38
498,00	2144,58
498,10	2085,37
498,21	2224,12
498,31	2079,04
498,42	2146,84
498,52	2250,34
498,62	2173,50
498,73	2178,02
498,83	2219,60
498,94	2130,11
499,04	2253,95
499,15	2173,95
499,25	2135,54
499,35	2262,09
499,46	2321,75
499,56	2438,81
499,67	2236,33
499,77	2114,75
499,87	2151,36
499,98	2169,89
500,08	2098,93
500,19	2165,37
500,29	2190,22
500,39	2245,36
500,50	2290,11
500,60	2208,30
500,71	2206,04
500,81	2223,67
500,91	2140,96
501,02	2178,47
501,12	2242,65
501,22	2178,93
501,33	2243,10
501,43	2262,54
501,54	2182,54
501,64	2195,65
501,74	2198,81
501,85	2374,63
501,95	2177,57
502,05	2209,66
502,16	2229,09
502,26	2410,78
502,37	2312,71
502,47	2289,21
502,57	2290,11
502,68	2253,95
502,78	2242,20
502,88	2359,26
502,99	2277,00
503,09	2414,85
503,19	2264,80
503,30	2227,74
503,40	2269,32
503,50	2281,07
503,61	2306,38
503,71	2291,47
503,81	2309,54
503,92	2322,65
504,02	2395,87
504,12	2670,66
504,23	2451,01
504,33	2349,32
504,43	2350,22
504,54	2460,05
504,64	2383,21
504,74	2652,13
504,84	2367,85
504,95	2351,58
505,05	2298,24
505,15	2478,13
505,26	2326,27
505,36	2357,45
505,46	2385,93
505,56	2486,71
505,67	2430,22
505,77	2453,27
505,87	2361,97
505,98	2351,12
506,08	2413,04
506,18	2420,28
506,28	2436,09
506,39	2429,31
506,49	2382,31
506,59	2370,11
506,70	2380,05
506,80	2467,28
506,90	2670,21
507,00	2414,85
507,11	2463,21
507,21	2623,21
507,31	2554,96
507,41	2493,95
507,52	2517,00
507,62	2518,80
507,72	2670,21
507,82	2620,50
507,93	2532,81
508,03	2618,24
508,13	2599,71
508,23	2559,93
508,34	2565,81
508,44	2460,05
508,54	2531,46
508,64	2610,10
508,74	2532,81
508,85	2554,96
508,95	2567,62
509,05	2551,80
509,15	2629,54
509,26	2681,06
509,36	2628,63
509,46	2708,18
509,56	2620,50
509,66	2684,68
509,77	2600,61
509,87	2691,45
509,97	2708,18
510,07	2733,49
510,17	2674,28
510,28	3011,45
510,38	2876,76
510,48	2715,41
510,58	2857,33
510,68	2811,23
510,78	2877,66
510,89	2790,89
510,99	2771,00
511,09	2870,43
511,19	2871,79
511,29	2797,67
511,39	2934,61
511,50	2954,05
511,60	2732,13
511,70	2853,26
511,80	2854,61
511,90	2899,36
512,00	2757,89
512,11	2766,48
512,21	2808,97
512,31	2733,94
512,41	2948,17
512,51	2840,60
512,61	3019,13
512,71	2799,93
512,82	2853,26
512,92	2810,32
513,02	2926,02
513,12	2858,68
513,22	2881,73
513,32	2982,07
513,42	2955,40
513,53	3070,20
513,63	2996,98
513,73	3035,85
513,83	2869,53
513,93	2974,39
514,03	3017,32
514,13	3140,71
514,23	2956,31
514,33	3006,02
514,44	3020,03
514,54	3018,68
514,64	3256,86
514,74	3066,13
514,84	3080,60
514,94	3199,92
515,04	3194,04
515,14	3198,56
515,24	3181,39
515,34	3160,14
515,44	3137,54
515,55	3165,11
515,65	3264,09
515,75	3160,14
515,85	3189,97
515,95	3343,19
516,05	3433,13
516,15	3339,12
516,25	3300,70
516,35	3292,57
516,45	3346,80
516,55	3315,62
516,65	3379,35
516,75	3634,71
516,85	3539,79
516,95	3652,33
517,05	3630,64
517,16	3503,18
517,26	3761,71
517,36	3448,95
517,46	3420,48
517,56	3555,61
517,66	3520,81
517,76	3486,46
517,86	3487,37
517,96	3662,28
518,06	3588,15
518,16	3598,10
518,26	3691,65
518,36	3637,87
518,46	3693,01
518,56	3835,38
518,66	3936,62
518,76	3895,04
518,86	3990,40
518,96	3946,11
519,06	4086,22
519,16	4259,78
519,26	4285,09
519,36	4350,17
519,46	4344,29
519,56	4403,95
519,66	4486,21
519,76	4267,46
519,86	4315,37
519,96	4490,73
520,06	4540,90
520,16	4744,73
520,26	4815,24
520,36	4816,14
520,46	4980,21
520,56	4981,11
520,66	5175,91
520,76	5196,70
520,86	5323,70
520,96	5538,39
521,06	5555,11
521,16	5511,72
521,26	5612,51
521,35	5716,46
521,45	5688,89
521,55	5724,60
521,65	6075,77
521,75	6279,16
521,85	6563,44
521,95	7162,30
522,05	7616,07
522,15	7915,27
522,25	9551,84
522,35	8735,59
522,45	8581,92
522,55	9059,20
522,65	9303,26
522,75	9648,56
522,85	9813,98
522,94	9769,23
523,04	9733,08
523,14	9576,70
523,24	9131,06
523,34	8536,27
523,44	7847,03
523,54	7191,68
523,64	6642,09
523,74	6501,98
523,84	6175,20
523,94	6050,01
524,03	5908,09
524,13	6130,91
524,23	6150,35
524,33	6102,89
524,43	6116,45
524,53	6256,11
524,63	6213,62
524,73	6359,15
524,83	6454,97
524,92	6731,12
525,02	6962,53
525,12	7425,79
525,22	7688,84
525,32	8030,52
525,42	8602,26
525,52	8965,64
525,61	9577,15
525,71	9790,48
525,81	9937,37
525,91	9816,24
526,01	9523,82
526,11	9205,63
526,21	8888,35
526,30	8525,43
526,40	8327,46
526,50	8379,89
526,60	8486,10
526,70	8512,77
526,80	8774,46
526,89	8964,28
526,99	9082,25
527,09	9525,17
527,19	9773,30
527,29	10320,63
527,39	10890,11
527,48	11562,63
527,58	12433,12
527,68	13312,19
527,78	14627,41
527,88	15558,01
527,97	16108,05
528,07	16528,83
528,17	17336,04
528,27	17978,74
528,37	18397,71
528,46	19299,83
528,56	20356,53
528,66	20977,98
528,76	21856,15
528,86	23088,66
528,95	24031,46
529,05	25042,51
529,15	26836,36
529,25	28718,34
529,35	31252,51
529,44	33885,66
529,54	36828,41
529,64	40136,80
529,74	44646,96
529,83	48863,80
529,93	52150,04
530,03	54603,76
530,13	56817,94
530,22	58613,60
530,32	60350,96
530,42	62101,42
530,52	64233,79
530,61	65535,00
530,71	65535,00
530,81	65535,00
530,91	65535,00
531,00	65535,00
531,10	65535,00
531,20	65535,00
531,30	65535,00
531,39	65535,00
531,49	65535,00
531,59	65535,00
531,69	65535,00
531,78	65535,00
531,88	65535,00
531,98	65535,00
532,07	65535,00
532,17	65535,00
532,27	65535,00
532,37	65535,00
532,46	65535,00
532,56	65535,00
532,66	65535,00
532,75	65535,00
532,85	65535,00
532,95	65535,00
533,04	65535,00
533,14	63290,54
533,24	59437,53
533,34	55478,32
533,43	51382,15
533,53	45832,02
533,63	42040,93
533,72	37980,47
533,82	34684,29
533,92	32301,98
534,01	30331,86
534,11	28440,83
534,21	26689,02
534,30	25090,41
534,40	23588,08
534,50	21928,01
534,59	21063,40
534,69	20134,61
534,79	19190,00
534,88	18358,84
534,98	17361,80
535,08	16378,33
535,17	15924,55
535,27	15217,68
535,36	14736,79
535,46	14193,07
535,56	13651,62
535,65	13214,57
535,75	12769,83
535,85	12130,30
535,94	11695,96
536,04	11573,48
536,14	11417,10
536,23	11266,14
536,33	10807,85
536,42	10575,09
536,52	10344,59
536,62	10285,83
536,71	10184,59
536,81	10295,77
536,90	10312,95
537,00	10274,98
537,10	10177,81
537,19	10324,25
537,29	10572,83
537,38	10983,21
537,48	11341,62
537,58	12103,64
537,67	13106,10
537,77	14485,95
537,86	15686,37
537,96	16871,87
538,06	17400,67
538,15	17642,02
538,25	17269,60
538,34	16353,02
538,44	14840,29
538,53	13240,78
538,63	12112,22
538,73	11016,21
538,82	10191,82
538,92	9627,77
539,01	9442,92
539,11	8906,88
539,20	8819,66
539,30	8386,67
539,39	8117,30
539,49	8063,06
539,59	7899,00
539,68	8091,54
539,78	8011,99
539,87	7865,56
539,97	7911,20
540,06	8117,30
540,16	8304,87
540,25	8809,26
540,35	9636,36
540,44	10379,84
540,54	11726,70
540,63	12616,62
540,73	13676,93
540,82	14225,61
540,92	14421,32
541,01	14036,24
541,11	13169,37
541,20	11655,74
541,30	10138,04
541,39	8720,22
541,49	7386,92
541,58	6667,85
541,68	6117,35
541,77	5598,95
541,87	5272,63
541,96	5114,89
542,06	5173,65
542,15	5135,68
542,25	5048,00
542,34	4867,67
542,44	4633,55
542,53	4645,75
542,63	4634,00
542,72	4597,39
542,82	4496,60
542,91	4571,63
543,01	4464,06
543,10	4553,55
543,20	4458,19
543,29	4426,10
543,38	4264,29
543,48	4288,70
543,57	4198,31
543,67	4107,91
543,76	4099,78
543,86	4033,79
543,95	4093,90
544,05	4203,28
544,14	4210,96
544,23	4048,71
544,33	3986,79
544,42	4175,26
544,52	4257,06
544,61	4381,81
544,71	4671,97
544,80	5031,28
544,89	5172,75
544,99	5257,71
545,08	5455,68
545,18	5306,08
545,27	5553,75
545,36	5338,16
545,46	5010,04
545,55	4672,42
545,65	4446,44
545,74	4204,18
545,84	3961,48
545,93	3895,94
546,02	3779,34
546,12	3756,74
546,21	3688,04
546,30	3547,93
546,40	3525,33
546,49	3402,85
546,59	3429,97
546,68	3328,73
546,77	3439,91
546,87	3368,50
546,96	3435,39
547,05	3387,48
547,15	3279,46
547,24	3361,27
547,34	3275,39
547,43	3222,51
547,52	3317,43
547,62	3246,47
547,71	3254,60
547,80	3221,16
547,90	3139,35
547,99	3291,66
548,08	3131,67
548,18	2993,82
548,27	3012,35
548,36	2988,85
548,46	2996,08
548,55	2967,15
548,64	3011,90
548,74	2953,14
548,83	2989,30
548,92	3147,49
549,02	2875,40
549,11	3208,96
549,20	3020,49
549,30	2917,89
549,39	2950,88
549,48	2949,08
549,58	2871,34
549,67	2938,23
549,76	2897,55
549,85	2786,82
549,95	2855,52
550,04	2897,55
550,13	2756,54
550,23	2871,79
550,32	2709,99
550,41	2773,26
550,50	2802,64
550,60	2908,40
550,69	2750,66
550,78	2635,86
550,88	2808,97
550,97	2774,16
551,06	2742,98
551,15	2716,31
551,25	2927,38
551,34	2731,68
551,43	2724,90
551,52	2760,15
551,62	2824,78
551,71	2857,78
551,80	2796,76
551,89	2775,97
551,99	2730,78
552,08	2728,97
552,17	2683,77
552,26	2749,76
552,36	2624,11
552,45	2625,92
552,54	2620,95
552,63	2713,60
552,73	2897,55
552,82	2887,16
552,91	2759,25
553,00	3015,51
553,10	2821,62
553,19	3008,73
553,28	2852,35
553,37	3053,03
553,46	2954,05
553,56	3249,63
553,65	3277,65
553,74	3451,21
553,83	3778,43
553,92	3930,29
554,02	4198,31
554,11	4322,60
554,20	4460,00
554,29	4760,10
554,38	4662,02
554,48	4664,74
554,57	4621,80
554,66	4633,55
554,75	4648,92
554,84	4670,16
554,94	4621,80
555,03	4579,31
555,12	4488,92
555,21	4455,02
555,30	4629,03
555,39	4228,14
555,49	4046,00
555,58	3887,81
555,67	3715,61
555,76	3539,79
555,85	3133,48
555,94	3015,06
556,03	2856,87
556,13	2770,55
556,22	2680,61
556,31	2644,00
556,40	2465,02
556,49	2599,25
556,58	2528,75
556,67	2467,28
556,77	2422,08
556,86	2530,10
556,95	2435,19
557,04	2516,09
557,13	2535,98
557,22	2452,36
557,31	2350,22
557,40	2265,70
557,50	2395,87
557,59	2188,87
557,68	2181,19
557,77	2359,71
557,86	2271,13
557,95	2226,38
558,04	2201,98
558,13	2187,51
558,22	2225,48
558,31	2189,32
558,41	2120,62
558,50	2236,78
558,59	2244,01
558,68	2252,14
558,77	2221,86
558,86	2094,41
558,95	2091,24
559,04	2198,36
559,13	2273,39
559,22	2116,10
559,31	2138,25
559,40	2093,50
559,49	2130,11
559,59	2186,16
559,68	2020,29
559,77	2239,04
559,86	2284,23
559,95	2094,41
560,04	2074,07
560,13	2144,58
560,22	2283,78
560,31	2118,81
560,40	2095,76
560,49	1947,07
560,58	2001,76
560,67	1982,77
560,76	2001,30
560,85	1980,51
560,94	2144,58
561,03	1980,06
561,12	2336,66
561,21	2306,83
561,30	1990,00
561,39	1981,42
561,48	2015,31
561,57	1912,27
561,66	2031,59
561,75	2125,14
561,84	1969,67
561,93	1960,17
562,02	1987,74
562,11	1874,30
562,20	1885,60
562,29	1971,02
562,38	1889,67
562,47	2011,70
562,56	1948,88
562,65	1882,89
562,74	1921,31
562,83	2256,66
562,92	1966,05
563,01	2078,14
563,10	1856,22
563,19	1921,76
563,28	2284,23
563,37	2019,38
563,46	1860,29
563,55	1894,19
563,64	2212,37
563,73	1853,06
563,82	1947,07
563,91	2096,67
564,00	1944,36
564,09	1873,40
564,18	1914,53
564,27	1834,98
564,35	1978,71
564,44	1919,50
564,53	1988,65
564,62	1993,17
564,71	1929,89
564,80	1924,02
564,89	1941,19
564,98	5086,87
565,07	2082,66
565,16	1825,49
565,25	2412,59
565,34	1905,03
565,43	1872,95
565,51	1841,31
565,60	2033,84
565,69	1841,31
565,78	2069,55
565,87	1824,13
565,96	1762,21
566,05	1950,68
566,14	1997,69
566,23	1924,02
566,32	2041,53
566,40	1941,19
566,49	2042,43
566,58	1855,32
566,67	1889,22
566,76	1822,78
566,85	1843,12
566,94	1892,38
567,03	1919,05
567,11	1854,87
567,20	1890,57
567,29	2006,73
567,38	1915,43
567,47	1824,58
567,56	1872,04
567,65	1892,38
567,73	1795,66
567,82	1803,79
567,91	1863,45
568,00	1871,59
568,09	2018,93
568,18	1832,27
568,27	1856,67
568,35	1880,18
568,44	1905,03
568,53	1893,28
568,62	1803,34
568,71	1758,15
568,80	1805,15
568,88	1930,80
568,97	1991,81
569,06	1773,51
569,15	1825,94
569,24	1903,68
569,32	1916,79
569,41	1867,97
569,50	1749,11
569,59	1753,63
569,68	1763,57
569,76	1838,14
569,85	1902,77
569,94	1973,73
570,03	1790,24
570,12	1921,31
570,20	1864,81
570,29	1883,34
570,38	1878,37
570,47	1877,46
570,56	1761,31
570,64	1801,08
570,73	1854,87
570,82	2018,93
570,91	1952,04
570,99	1815,09
571,08	1777,58
571,17	1791,14
571,26	1971,93
571,34	1821,42
571,43	1858,93
571,52	1915,88
571,61	1793,85
571,69	1781,20
571,78	1934,41
571,87	1928,08
571,96	1951,59
572,04	1929,89
572,13	1928,99
572,22	1805,60
572,31	1752,27
572,39	1780,29
572,48	1871,59
572,57	1833,17
572,66	1785,72
572,74	1712,95
572,83	1887,86
572,92	1835,88
573,00	1776,68
573,09	1919,05
573,18	1898,26
573,27	1908,65
573,35	1792,04
573,44	1751,37
573,53	1768,09
573,61	1830,46
573,70	1912,27
573,79	1783,46
573,87	2029,33
573,96	1766,73
574,05	1802,44
574,14	1800,63
574,22	1807,86
574,31	1934,41
574,40	1753,63
574,48	1842,21
574,57	1831,82
574,66	1816,00
574,74	1835,43
574,83	1940,29
574,92	1896,00
575,00	1798,82
575,09	1908,65
575,18	1781,20
575,26	1951,59
575,35	1806,51
575,43	1798,37
575,52	1878,82
575,61	1862,10
575,69	1910,01
575,78	1796,56
575,87	2020,29
575,95	1871,59
576,04	1810,12
576,13	1864,36
576,21	1790,24
576,30	1852,15
576,38	1839,50
576,47	1799,73
576,56	1810,57
576,64	1807,41
576,73	1909,55
576,82	1906,84
576,90	1836,34
576,99	1841,31
577,07	1775,77
577,16	1828,65
577,25	1901,42
577,33	2060,51
577,42	1845,83
577,50	1776,22
577,59	1882,44
577,68	1935,77
577,76	1850,35
577,85	1846,28
577,93	1843,12
578,02	1856,67
578,10	1845,38
578,19	1844,92
578,28	1844,92
578,36	1885,60
578,45	1847,64
578,53	1801,08
578,62	1810,57
578,70	1820,52
578,79	1832,72
578,88	1893,28
578,96	1842,21
579,05	1842,21
579,13	2050,12
579,22	1935,32
579,30	1840,86
579,39	1908,20
579,47	2082,21
579,56	1852,61
579,64	2338,02
579,73	1881,98
579,82	1943,00
579,90	1850,80
579,99	1820,97
580,07	1942,55
580,16	1892,38
580,24	1943,90
580,33	1797,47
580,41	1891,93
580,50	1823,68
580,58	1866,17
580,67	1858,03
580,75	1907,29
580,84	1831,36
580,92	1783,00
581,01	2021,19
581,09	1812,38
581,18	1839,95
581,26	1785,72
581,35	1746,85
581,43	1888,76
581,52	1790,69
581,60	1841,31
581,69	1833,17
581,77	1820,97
581,86	1874,75
581,94	1790,24
582,02	1896,90
582,11	1722,44
582,19	1947,97
582,28	2032,49
582,36	1986,84
582,45	1994,52
582,53	1782,10
582,62	1786,62
582,70	1746,85
582,79	1816,00
582,87	1731,03
582,96	1840,40
583,04	1955,20
583,12	1861,19
583,21	1774,42
583,29	1880,18
583,38	1849,44
583,46	1801,99
583,55	1801,53
583,63	1750,46
583,71	1845,38
583,80	1798,82
583,88	1751,82
583,97	2032,04
584,05	1862,55
584,13	1873,40
584,22	1864,36
584,30	1775,77
584,39	1855,32
584,47	1879,27
584,55	1763,57
584,64	1821,87
584,72	1816,00
584,81	1775,77
584,89	1730,58
584,97	1733,74
585,06	1729,67
585,14	1799,27
585,23	1849,44
585,31	1738,26
585,39	1779,84
585,48	1838,60
585,56	1742,78
585,64	1856,67
585,73	1820,52
585,81	1797,01
585,90	1840,86
585,98	1787,52
586,06	1806,96
586,15	1957,91
586,23	1710,69
586,31	1754,08
586,40	1768,09
586,48	1898,71
586,56	1736,45
586,65	1750,01
586,73	1727,41
586,81	1855,77
586,90	1795,21
586,98	1722,44
587,06	1731,03
587,15	1781,65
587,23	1796,11
587,31	1798,82
587,40	1756,34
587,48	1728,32
587,56	1893,74
587,65	2060,96
587,73	1892,38
587,81	1817,81
587,90	1990,91
587,98	1807,41
588,06	1763,12
588,14	1733,29
588,23	1757,24
588,31	1945,26
588,39	1872,49
588,48	1760,41
588,56	1745,49
588,64	1850,80
588,72	1805,60
588,81	1737,36
588,89	1778,48
588,97	1810,12
589,06	1942,10
589,14	1891,48
589,22	1816,00
589,30	1760,86
589,39	1789,33
589,47	1854,41
589,55	1989,10
589,63	1842,66
589,72	1768,54
589,80	1781,20
589,88	1855,77
589,96	1893,28
590,05	1840,40
590,13	1794,30
590,21	1873,85
590,29	1910,46
590,38	1860,29
590,46	1907,29
590,54	1709,33
590,62	1735,10
590,71	1900,06
590,79	1925,37
590,87	1692,61
590,95	1742,33
591,03	1774,42
591,12	1787,07
591,20	1778,94
591,28	1950,23
591,36	1873,85
591,44	1766,73
591,53	1798,37
591,61	1753,17
591,69	1740,07
591,77	1791,59
591,85	1801,53
591,94	1769,90
592,02	1751,82
592,10	1844,02
592,18	1872,04
592,26	1822,78
592,34	1740,97
592,43	1683,12
592,51	1720,18
592,59	1757,24
592,67	1839,50
592,75	1745,04
592,84	1760,86
592,92	1894,64
593,00	1748,20
593,08	1748,20
593,16	1698,94
593,24	1729,67
593,32	1853,96
593,41	1806,05
593,49	1687,64
593,57	1730,58
593,65	1717,92
593,73	1811,93
593,81	1834,08
593,89	1859,84
593,98	1749,56
594,06	1726,96
594,14	1725,60
594,22	1747,75
594,30	1713,40
594,38	1746,85
594,46	1854,41
594,54	1841,31
594,62	1833,17
594,71	1756,79
594,79	1714,76
594,87	1738,26
594,95	1743,23
595,03	1874,30
595,11	1786,17
595,19	1940,74
595,27	1774,42
595,35	1693,06
595,43	1727,41
595,52	1771,25
595,60	1786,62
595,68	1959,27
595,76	1727,41
595,84	1816,00
595,92	1703,01
596,00	1877,46
596,08	1851,25
596,16	1791,14
596,24	1761,76
596,32	1738,26
596,40	1823,68
596,48	1830,91
596,56	1772,16
596,64	1712,95
596,73	1884,70
596,81	1731,48
596,89	1791,59
596,97	1661,88
597,05	2093,05
597,13	1756,79
597,21	1702,10
597,29	1738,71
597,37	1874,30
597,45	1801,99
597,53	1705,27
597,61	1790,69
597,69	1806,96
597,77	1758,60
597,85	1755,43
597,93	1768,54
598,01	1713,85
598,09	1810,12
598,17	1769,90
598,25	1750,46
598,33	1656,45
598,41	1738,26
598,49	1710,69
598,57	1686,28
598,65	1750,91
598,73	1750,91
598,81	1769,45
598,89	1730,12
598,97	1696,23
599,05	1857,13
599,13	1715,21
599,21	1706,17
599,29	1759,05
599,37	1739,16
599,45	1686,74
599,53	1941,64
599,61	1721,08
599,69	1821,87
599,77	1740,07
599,85	1714,76
599,93	1729,67
600,00	1716,11
600,08	1773,96
600,16	1666,85
600,24	1709,33
600,32	1870,69
600,40	1916,33
600,48	1865,26
600,56	1860,29
600,64	1848,99
600,72	1736,45
600,80	1750,01
600,88	1714,76
600,96	1851,70
601,04	1675,44
601,12	1687,64
601,19	1628,88
601,27	1730,58
601,35	1739,62
601,43	1685,83
601,51	1734,19
601,59	1687,19
601,67	1658,71
601,75	1686,28
601,83	1769,90
601,91	1661,43
601,98	1684,02
602,06	1812,83
602,14	1744,59
602,22	1796,11
602,30	1822,32
602,38	1776,68
602,46	1701,65
602,54	1833,62
602,61	1784,36
602,69	1747,30
602,77	1674,08
602,85	1684,02
602,93	1696,23
603,01	1726,51
603,09	1805,15
603,17	1711,59
603,24	1782,10
603,32	1680,86
603,40	1759,95
603,48	1799,73
603,56	1626,62
603,64	1745,49
603,71	1686,28
603,79	1750,46
603,87	1796,56
603,95	2001,30
604,03	1715,66
604,11	1784,81
604,18	1763,12
604,26	1693,97
604,34	1671,37
604,42	1758,60
604,50	1681,76
604,57	1695,77
604,65	1704,36
604,73	1725,60
604,81	1749,56
604,89	1659,17
604,96	1699,84
605,04	1759,95
605,12	1712,95
605,20	1791,59
605,28	1867,97
605,35	1712,95
605,43	1752,27
605,51	1709,79
605,59	1807,41
605,67	1917,69
605,74	1725,60
605,82	1772,61
605,90	1663,23
605,98	1776,22
606,05	1750,01
606,13	1783,00
606,21	1723,80
606,29	1734,64
606,36	1729,67
606,44	1687,19
606,52	1731,48
606,60	1706,62
606,67	1617,13
606,75	1652,84
606,83	1610,81
606,91	1793,85
606,98	1675,89
607,06	1707,07
607,14	1696,68
607,22	1683,57
607,29	1679,96
607,37	1730,12
607,45	1756,34
607,52	1771,70
607,60	1780,74
607,68	1709,79
607,76	1756,79
607,83	1644,70
607,91	1781,20
607,99	1765,38
608,06	1736,00
608,14	1686,74
608,22	1704,81
608,30	1846,73
608,37	1675,44
608,45	1633,40
608,53	1711,59
608,60	1732,38
608,68	1717,47
608,76	1663,23
608,83	1804,25
608,91	1662,78
608,99	1783,46
609,06	1750,01
609,14	1768,09
609,22	1679,50
609,29	1675,89
609,37	1638,83
609,45	1798,37
609,52	1638,38
609,60	1664,59
609,68	1661,43
609,75	1664,14
609,83	1643,35
609,91	1887,86
609,98	1685,83
610,06	1645,15
610,13	1743,68
610,21	1688,54
610,29	1726,51
610,36	1645,61
610,44	1674,98
610,52	1697,13
610,59	1639,28
610,67	1623,91
610,74	1718,82
610,82	1639,73
610,90	1745,94
610,97	1702,55
611,05	1738,71
611,13	1715,66
611,20	1843,57
611,28	1634,76
611,35	1695,77
611,43	1633,40
611,51	1709,79
611,58	1698,94
611,66	1839,05
611,73	1657,36
611,81	1816,45
611,88	1693,51
611,96	1771,70
612,04	1642,89
612,11	1628,88
612,19	1823,68
612,26	1674,08
612,34	1692,16
612,41	1689,90
612,49	1624,82
612,57	1623,46
612,64	1634,31
612,72	1824,58
612,79	1899,16
612,87	1637,02
612,94	1608,09
613,02	1705,72
613,09	1672,72
613,17	1717,47
613,24	1660,97
613,32	1747,75
613,40	1658,71
613,47	1664,14
613,55	1624,82
613,62	1788,43
613,70	1807,41
613,77	1653,74
613,85	1786,17
613,92	1654,19
614,00	1623,46
614,07	1664,59
614,15	1619,84
614,22	1612,61
614,30	1689,00
614,37	1619,39
614,45	1648,32
614,52	1617,13
614,60	1660,97
614,67	1743,23
614,75	1590,47
614,82	1769,45
614,90	1673,63
614,97	1606,29
615,05	1825,94
615,12	1762,21
615,20	1674,53
615,27	1673,63
615,34	1662,78
615,42	1626,62
615,49	1651,48
615,57	1588,21
615,64	1653,29
615,72	1668,20
615,79	1621,20
615,87	1718,37
615,94	1781,65
616,02	1707,98
616,09	1762,67
616,16	1710,24
616,24	1652,84
616,31	1594,53
616,39	1858,03
616,46	1740,97
616,54	1693,06
616,61	1841,31
616,68	1620,30
616,76	1635,21
616,83	1678,15
616,91	1624,82
616,98	1614,42
617,06	1767,19
617,13	1616,23
617,20	1628,43
617,28	1651,03
617,35	1608,09
617,43	1750,46
617,50	1632,95
617,57	1628,43
>>>>>End Processed Spectral Data<<<<<
