SpectraSuite Datei
++++++++++++++++++++++++++++++++++++
Datum: Sun Jan 04 06:28:24 CET 2004
Benutzer: H. Stützler
Dark-Spektrum vorhanden: Nein
Referenz-Spektrum vorhanden: Nein
Zahl der probierten Teilspektren: 1
Spektrometer: USB2+H04734
Integrationszeit (usec): 1000000 (USB2+H04734)
Spektren Durchschnitt berechnet: 10 (USB2+H04734)
Boxcar Glättung: 0 (USB2+H04734)
Dunkelstromkorrektur: Nein (USB2+H04734)
Puls/Lampe aktiviert: Nein (USB2+H04734)
Correct for Detector Non-linearity: Nein (USB2+H04734)
Streulichtkorrektur: Nein (USB2+H04734)
Anzahl Pixel in verarbeitetem Spektrum: 2048
>>>>>Begin Processed Spectral Data<<<<<
418,45	1228,44
418,57	1228,44
418,69	1228,44
418,80	1150,25
418,92	1127,43
419,04	1343,69
419,16	1213,08
419,28	1213,53
419,40	1179,86
419,52	1209,01
419,64	1156,81
419,75	1188,22
419,87	1196,58
419,99	1191,61
420,11	1199,52
420,23	1234,32
420,35	1263,70
420,47	1251,27
420,58	1244,26
420,70	1275,22
420,82	1261,66
420,94	1310,70
421,06	1382,56
421,18	1314,99
421,29	1323,81
421,41	1317,71
421,53	1331,49
421,65	1423,24
421,77	1396,80
421,89	1346,63
422,00	1447,19
422,12	1374,65
422,24	1362,22
422,36	1434,54
422,48	1446,74
422,59	1397,25
422,71	1428,21
422,83	1356,57
422,95	1371,72
423,07	1410,81
423,18	1479,28
423,30	1464,14
423,42	1393,18
423,54	1402,22
423,66	1384,14
423,77	1420,08
423,89	1373,98
424,01	1357,25
424,13	1369,68
424,25	1381,66
424,36	1408,55
424,48	1406,06
424,60	1390,92
424,72	1451,94
424,84	1372,39
424,95	1447,87
425,07	1407,42
425,19	1394,77
425,31	1403,58
425,42	1364,03
425,54	1438,15
425,66	1423,47
425,78	1366,52
425,89	1396,57
426,01	1401,09
426,13	1380,75
426,25	1459,85
426,36	1379,85
426,48	1411,94
426,60	1426,40
426,72	1387,99
426,83	1418,49
426,95	1397,48
427,07	1377,82
427,19	1498,72
427,30	1403,80
427,42	1328,55
427,54	1335,56
427,66	1390,70
427,77	1358,83
427,89	1393,86
428,01	1408,55
428,12	1399,06
428,24	1368,10
428,36	1352,96
428,48	1350,92
428,59	1366,97
428,71	1396,57
428,83	1345,73
428,94	1360,64
429,06	1376,01
429,18	1420,75
429,30	1397,03
429,41	1381,88
429,53	1415,10
429,65	1427,31
429,76	1426,18
429,88	1375,78
430,00	1416,23
430,11	1435,22
430,23	1390,25
430,35	1472,50
430,47	1389,57
430,58	1374,43
430,70	1440,19
430,82	1427,99
430,93	1586,62
431,05	1422,11
431,17	1391,38
431,28	1426,63
431,40	1380,08
431,52	1476,57
431,63	1372,62
431,75	1371,04
431,87	1382,79
431,98	1432,05
432,10	1400,19
432,22	1378,04
432,33	1456,01
432,45	1381,21
432,56	1416,91
432,68	1407,42
432,80	1375,33
432,91	1425,95
433,03	1419,17
433,15	1450,81
433,26	1397,70
433,38	1367,65
433,50	1349,34
433,61	1443,13
433,73	1451,26
433,84	1387,99
433,96	1368,55
434,08	1407,42
434,19	1388,66
434,31	1372,17
434,43	1406,74
434,54	1382,34
434,66	1358,83
434,77	1335,78
434,89	1440,19
435,01	1393,41
435,12	1358,83
435,24	1372,62
435,35	1376,69
435,47	1486,74
435,59	1393,18
435,70	1379,40
435,82	1389,12
435,93	1451,71
436,05	1402,45
436,17	1379,40
436,28	1419,62
436,40	1407,19
436,51	1366,29
436,63	1363,81
436,74	1444,93
436,86	1466,85
436,98	1641,31
437,09	1384,60
437,21	1435,22
437,32	1373,30
437,44	1433,18
437,55	1372,62
437,67	1754,76
437,79	1536,23
437,90	1411,26
438,02	1368,33
438,13	2234,29
438,25	1475,44
438,36	1452,84
438,48	1398,16
438,59	1427,99
438,71	1387,53
438,83	1360,87
438,94	1370,36
439,06	1443,80
439,17	1449,45
439,29	1352,96
439,40	1406,52
439,52	1379,40
439,63	1410,58
439,75	1373,07
439,86	1369,00
439,98	1404,93
440,09	1441,54
440,21	1402,00
440,32	1383,92
440,44	1340,76
440,55	1388,21
440,67	1377,82
440,78	1458,49
440,90	1367,20
441,01	1367,42
441,13	1354,77
441,24	1404,26
441,36	1461,66
441,47	1357,03
441,59	1435,44
441,70	1358,61
441,82	1429,79
441,93	1418,95
442,05	1356,12
442,16	1359,74
442,28	1367,42
442,39	1395,67
442,51	1418,49
442,62	1369,00
442,74	1450,13
442,85	1391,83
442,97	1504,37
443,08	1439,28
443,20	1433,18
443,31	1421,21
443,43	1374,43
443,54	1428,21
443,66	1362,90
443,77	1375,33
443,88	1360,64
444,00	1418,04
444,11	1430,92
444,23	1440,19
444,34	1358,16
444,46	1353,64
444,57	1462,33
444,69	1451,49
444,80	1403,58
444,91	1554,08
445,03	1369,23
445,14	1439,06
445,26	1361,55
445,37	1375,56
445,49	1407,65
445,60	1432,73
445,71	1493,29
445,83	1408,32
445,94	1354,09
446,06	1437,48
446,17	1359,29
446,29	1358,83
446,40	1406,52
446,51	1441,32
446,63	1394,99
446,74	1380,30
446,86	1370,59
446,97	1427,31
447,08	1374,65
447,20	1411,26
447,31	1352,05
447,43	1386,86
447,54	1401,32
447,65	1433,41
447,77	1364,48
447,88	1384,37
448,00	1404,71
448,11	1356,80
448,22	1372,17
448,34	1409,23
448,45	1366,52
448,56	1383,47
448,68	1420,75
448,79	1451,26
448,90	1432,05
449,02	1369,00
449,13	1372,85
449,25	1430,70
449,36	1392,28
449,47	1406,06
449,59	1467,31
449,70	1379,17
449,81	1386,63
449,93	1407,19
450,04	1359,74
450,15	1378,72
450,27	1388,21
450,38	1423,92
450,49	1390,92
450,61	1479,96
450,72	1379,85
450,83	1437,25
450,95	1398,61
451,06	1407,65
451,17	1476,35
451,29	1432,73
451,40	1375,56
451,51	1359,96
451,63	1368,78
451,74	1450,36
451,85	1383,92
451,97	1417,82
452,08	1409,68
452,19	1362,90
452,31	1445,39
452,42	1378,49
452,53	1472,50
452,65	1466,18
452,76	1345,28
452,87	1373,07
452,98	1360,42
453,10	1396,12
453,21	1359,74
453,32	1371,04
453,44	1359,29
453,55	1378,49
453,66	1523,80
453,77	1416,46
453,89	1426,18
454,00	1479,96
454,11	1418,72
454,23	1425,50
454,34	1404,93
454,45	1337,37
454,56	1410,58
454,68	1490,81
454,79	1404,48
454,90	1422,34
455,01	1357,25
455,13	1355,22
455,24	1479,96
455,35	1371,04
455,46	1343,24
455,58	1346,41
455,69	1461,88
455,80	1436,12
455,91	1363,35
456,03	1402,00
456,14	1436,12
456,25	1380,08
456,36	1372,39
456,48	1392,28
456,59	1472,05
456,70	1369,91
456,81	1460,30
456,92	1487,64
457,04	1432,05
457,15	1517,93
457,26	1350,47
457,37	1402,00
457,49	1374,43
457,60	1356,80
457,71	1384,14
457,82	1443,13
457,93	1390,02
458,05	1454,88
458,16	1380,75
458,27	1382,79
458,38	1406,97
458,49	1420,75
458,61	1407,42
458,72	1393,18
458,83	1381,88
458,94	1426,86
459,05	1400,64
459,17	1610,81
459,28	1377,14
459,39	1386,18
459,50	1359,29
459,61	1444,03
459,72	1375,11
459,84	1348,67
459,95	1376,91
460,06	1634,53
460,17	1379,40
460,28	1384,82
460,39	1412,84
460,51	1419,17
460,62	1387,31
460,73	1382,56
460,84	1349,34
460,95	1459,17
461,06	1487,64
461,18	1456,23
461,29	1479,74
461,40	1398,83
461,51	1420,98
461,62	1537,81
461,73	1389,34
461,84	1425,05
461,96	1428,44
462,07	1430,47
462,18	1372,17
462,29	1387,99
462,40	1440,87
462,51	1396,57
462,62	1478,83
462,73	1482,90
462,85	1425,05
462,96	1431,83
463,07	1460,30
463,18	1520,86
463,29	1422,79
463,40	1377,59
463,51	1369,00
463,62	1386,18
463,73	1435,67
463,85	1392,05
463,96	1392,05
464,07	1389,34
464,18	1372,39
464,29	1367,20
464,40	1459,40
464,51	1402,22
464,62	1409,00
464,73	1367,42
464,84	1419,85
464,95	1397,93
465,06	1390,92
465,18	1363,81
465,29	1400,42
465,40	1388,21
465,51	1376,69
465,62	1418,95
465,73	1388,89
465,84	1404,71
465,95	1419,40
466,06	1373,98
466,17	1397,03
466,28	1405,84
466,39	1448,55
466,50	1359,74
466,61	1336,24
466,72	1387,76
466,83	1357,70
466,95	1382,11
467,06	1359,29
467,17	1393,41
467,28	1368,78
467,39	1385,27
467,50	1416,91
467,61	1353,64
467,72	1339,40
467,83	1355,67
467,94	1395,44
468,05	1349,34
468,16	1409,23
468,27	1404,71
468,38	1354,77
468,49	1444,03
468,60	1358,38
468,71	1467,53
468,82	1427,31
468,93	1427,99
469,04	1457,59
469,15	1384,37
469,26	1361,77
469,37	1409,23
469,48	1473,41
469,59	1398,38
469,70	1363,81
469,81	1378,04
469,92	1358,83
470,03	1426,63
470,14	1373,30
470,25	1437,25
470,36	1402,67
470,47	1356,57
470,58	1366,52
470,69	1428,21
470,80	1430,70
470,91	1363,81
471,02	1377,82
471,13	1385,95
471,24	1402,00
471,35	1361,77
471,46	1480,87
471,56	1436,35
471,67	1435,22
471,78	1457,59
471,89	1360,42
472,00	1367,65
472,11	1415,56
472,22	1446,06
472,33	1384,60
472,44	1416,69
472,55	1363,35
472,66	1394,31
472,77	1383,24
472,88	1519,51
472,99	1462,56
473,10	1358,83
473,21	1399,74
473,32	1395,44
473,42	1371,04
473,53	1365,84
473,64	1397,70
473,75	1401,32
473,86	1394,54
473,97	1427,53
474,08	1417,82
474,19	1444,93
474,30	1528,10
474,41	1407,65
474,52	1383,92
474,62	1404,93
474,73	1373,52
474,84	1489,90
474,95	1442,45
475,06	1423,24
475,17	1363,58
475,28	1350,70
475,39	1385,50
475,50	1352,73
475,60	1345,73
475,71	1349,34
475,82	1439,51
475,93	1355,67
476,04	1450,58
476,15	1385,27
476,26	1423,47
476,37	1388,66
476,47	1372,39
476,58	1370,36
476,69	1350,92
476,80	1368,33
476,91	1414,65
477,02	1400,64
477,13	1394,99
477,23	1381,21
477,34	1390,47
477,45	1418,95
477,56	1388,66
477,67	1377,36
477,78	1396,35
477,89	1403,13
477,99	1361,55
478,10	1423,92
478,21	1407,19
478,32	1397,03
478,43	1381,43
478,54	1507,53
478,64	1410,58
478,75	1387,08
478,86	1390,70
478,97	1383,47
479,08	1370,59
479,18	1360,64
479,29	1386,86
479,40	1379,85
479,51	1355,90
479,62	1387,08
479,72	1352,28
479,83	1375,33
479,94	1425,50
480,05	1413,07
480,16	1355,44
480,26	1428,66
480,37	1363,35
480,48	1436,80
480,59	1418,04
480,70	1412,17
480,80	1386,63
480,91	1371,26
481,02	1356,80
481,13	1407,19
481,24	1414,20
481,34	1364,48
481,45	1513,86
481,56	1408,55
481,67	1383,47
481,77	1373,98
481,88	1394,99
481,99	1396,80
482,10	1395,67
482,20	1706,17
482,31	1387,99
482,42	1408,78
482,53	1375,56
482,63	1466,18
482,74	1421,43
482,85	1370,59
482,96	1361,09
483,06	1359,06
483,17	1422,11
483,28	1359,06
483,39	1396,80
483,49	1410,81
483,60	1524,48
483,71	1378,27
483,81	1428,66
483,92	1385,73
484,03	1404,03
484,14	1382,34
484,24	1361,55
484,35	1402,45
484,46	1392,73
484,57	1362,90
484,67	1418,27
484,78	1380,98
484,89	1534,20
484,99	1393,18
485,10	1379,40
485,21	1425,95
485,31	1423,47
485,42	1392,73
485,53	1390,70
485,63	1402,67
485,74	1456,46
485,85	1549,56
485,96	1451,49
486,06	1382,34
486,17	1395,44
486,28	1411,94
486,38	1357,25
486,49	1431,37
486,60	1348,67
486,70	1375,56
486,81	1395,90
486,92	1354,77
487,02	1387,31
487,13	1357,25
487,24	1376,01
487,34	1350,25
487,45	1485,61
487,56	1377,36
487,66	1361,55
487,77	1413,07
487,87	1395,67
487,98	1344,15
488,09	1389,34
488,19	1331,04
488,30	1493,75
488,41	1373,75
488,51	1367,20
488,62	1365,84
488,73	1362,90
488,83	1387,99
488,94	1427,99
489,04	1461,43
489,15	1359,06
489,26	1379,62
489,36	1399,96
489,47	1369,91
489,58	1369,68
489,68	1411,49
489,79	1364,48
489,89	1414,65
490,00	1371,26
490,11	1399,96
490,21	1406,97
490,32	1360,87
490,42	1384,60
490,53	1407,42
490,64	1359,29
490,74	1355,90
490,85	1368,33
490,95	1439,51
491,06	1401,32
491,16	1381,88
491,27	1401,32
491,38	1366,52
491,48	1496,01
491,59	1478,15
491,69	1406,74
491,80	1350,47
491,90	1463,24
492,01	1371,72
492,12	1402,67
492,22	1385,95
492,33	1442,00
492,43	1392,28
492,54	1376,01
492,64	1355,90
492,75	1405,84
492,86	1403,13
492,96	1374,88
493,07	1364,03
493,17	1393,41
493,28	1409,00
493,38	1396,12
493,49	1371,72
493,59	1437,25
493,70	1393,86
493,80	1378,49
493,91	1373,30
494,01	1366,52
494,12	1383,24
494,22	1458,04
494,33	1482,22
494,43	1456,01
494,54	1489,68
494,64	1451,49
494,75	1360,64
494,86	1442,22
494,96	1374,88
495,07	1387,08
495,17	1470,70
495,28	1386,86
495,38	1354,99
495,49	1383,69
495,59	1414,65
495,69	1390,02
495,80	1465,50
495,90	1396,35
496,01	1360,64
496,11	1410,58
496,22	1375,11
496,32	1354,54
496,43	1429,79
496,53	1383,01
496,64	1373,52
496,74	1417,82
496,85	1422,34
496,95	1392,96
497,06	1378,72
497,16	1417,59
497,27	1378,27
497,37	1467,31
497,48	1376,69
497,58	1369,23
497,68	1389,12
497,79	1432,05
497,89	1368,10
498,00	1406,97
498,10	1375,11
498,21	1436,12
498,31	1386,40
498,42	1380,53
498,52	1439,51
498,62	1398,38
498,73	1412,84
498,83	1416,91
498,94	1372,85
499,04	1455,33
499,15	1393,41
499,25	1352,28
499,35	1421,66
499,46	1487,19
499,56	1498,72
499,67	1435,22
499,77	1369,00
499,87	1343,02
499,98	1377,82
500,08	1341,66
500,19	1378,95
500,29	1396,80
500,39	1425,50
500,50	1414,88
500,60	1402,90
500,71	1372,39
500,81	1400,87
500,91	1360,42
501,02	1367,20
501,12	1407,19
501,22	1363,35
501,33	1405,84
501,43	1417,14
501,54	1386,40
501,64	1390,02
501,74	1368,10
501,85	1447,65
501,95	1372,85
502,05	1358,16
502,16	1398,16
502,26	1459,40
502,37	1415,78
502,47	1395,44
502,57	1367,87
502,68	1373,07
502,78	1350,92
502,88	1454,20
502,99	1394,09
503,09	1435,89
503,19	1347,76
503,30	1367,87
503,40	1383,24
503,50	1383,69
503,61	1403,35
503,71	1391,38
503,81	1395,22
503,92	1408,55
504,02	1439,74
504,12	1560,41
504,23	1464,82
504,33	1400,19
504,43	1401,32
504,54	1447,19
504,64	1441,09
504,74	1573,52
504,84	1402,00
504,95	1356,80
505,05	1337,14
505,15	1470,92
505,26	1364,48
505,36	1382,11
505,46	1383,01
505,56	1416,23
505,67	1449,68
505,77	1407,19
505,87	1373,75
505,98	1367,65
506,08	1392,51
506,18	1395,67
506,28	1406,06
506,39	1399,29
506,49	1364,03
506,59	1376,01
506,70	1346,41
506,80	1413,30
506,90	1507,30
507,00	1353,64
507,11	1403,35
507,21	1423,92
507,31	1440,64
507,41	1418,04
507,52	1373,07
507,62	1391,83
507,72	1464,82
507,82	1458,94
507,93	1405,84
508,03	1437,25
508,13	1410,58
508,23	1381,66
508,34	1398,38
508,44	1381,21
508,54	1364,94
508,64	1402,22
508,74	1352,51
508,85	1399,06
508,95	1377,59
509,05	1369,68
509,15	1382,11
509,26	1414,20
509,36	1392,28
509,46	1412,17
509,56	1375,11
509,66	1415,10
509,77	1360,87
509,87	1381,66
509,97	1406,06
510,07	1408,55
510,17	1361,09
510,28	1569,90
510,38	1452,62
510,48	1381,88
510,58	1426,18
510,68	1401,55
510,78	1422,11
510,89	1396,57
510,99	1362,68
511,09	1428,89
511,19	1434,99
511,29	1374,43
511,39	1434,31
511,50	1456,46
511,60	1365,16
511,70	1430,47
511,80	1448,78
511,90	1453,97
512,00	1408,32
512,11	1395,67
512,21	1423,01
512,31	1369,23
512,41	1477,48
512,51	1426,40
512,61	1552,28
512,71	1390,25
512,82	1376,24
512,92	1333,07
513,02	1422,79
513,12	1402,67
513,22	1388,89
513,32	1448,55
513,42	1419,17
513,53	1474,09
513,63	1435,89
513,73	1446,06
513,83	1381,21
513,93	1434,54
514,03	1452,84
514,13	1506,63
514,23	1397,03
514,33	1427,31
514,44	1403,13
514,54	1420,53
514,64	1524,03
514,74	1407,19
514,84	1402,67
514,94	1443,35
515,04	1461,20
515,14	1440,41
515,24	1442,22
515,34	1427,31
515,44	1374,43
515,55	1372,62
515,65	1439,06
515,75	1411,94
515,85	1423,01
515,95	1451,71
516,05	1495,33
516,15	1452,39
516,25	1396,80
516,35	1423,01
516,45	1429,11
516,55	1429,34
516,65	1431,37
516,75	1544,37
516,85	1453,75
516,95	1467,98
517,05	1490,13
517,16	1402,67
517,26	1583,01
517,36	1445,16
517,46	1403,13
517,56	1472,05
517,66	1451,94
517,76	1472,28
517,86	1547,08
517,96	1678,83
518,06	1713,63
518,16	1771,25
518,26	1906,62
518,36	1932,83
518,46	1980,29
518,56	2008,08
518,66	2001,08
518,76	1896,00
518,86	1869,33
518,96	1703,46
519,06	1663,01
519,16	1651,48
519,26	1645,61
519,36	1617,58
519,46	1606,06
519,56	1656,91
519,66	1703,46
519,76	1542,11
519,86	1525,16
519,96	1550,69
520,06	1501,20
520,16	1598,15
520,26	1544,14
520,36	1473,18
520,46	1482,67
520,56	1459,17
520,66	1464,59
520,76	1449,00
520,86	1467,08
520,96	1536,00
521,06	1486,06
521,16	1434,54
521,26	1469,34
521,35	1492,62
521,45	1424,82
521,55	1475,67
521,65	1491,03
521,75	1479,74
521,85	1431,15
521,95	1446,74
522,05	1446,97
522,15	1443,13
522,25	1836,11
522,35	1538,72
522,45	1467,98
522,55	1505,95
522,65	1478,15
522,75	1448,10
522,85	1449,91
522,94	1474,76
523,04	1510,47
523,14	1494,88
523,24	1456,68
523,34	1454,43
523,44	1467,08
523,54	1433,63
523,64	1430,02
523,74	1530,81
523,84	1478,15
523,94	1446,52
524,03	1369,46
524,13	1418,49
524,23	1426,63
524,33	1391,83
524,43	1414,43
524,53	1417,82
524,63	1380,30
524,73	1394,09
524,83	1347,99
524,92	1392,05
525,02	1357,70
525,12	1429,57
525,22	1388,44
525,32	1374,43
525,42	1441,77
525,52	1395,67
525,61	1420,75
525,71	1348,44
525,81	1404,48
525,91	1366,07
526,01	1409,68
526,11	1386,86
526,21	1420,98
526,30	1408,10
526,40	1372,17
526,50	1415,78
526,60	1435,22
526,70	1419,85
526,80	1411,26
526,89	1366,97
526,99	1371,49
527,09	1391,60
527,19	1397,93
527,29	1417,14
527,39	1365,16
527,48	1411,94
527,58	1416,01
527,68	1357,03
527,78	1454,43
527,88	1530,13
527,97	1390,25
528,07	1374,88
528,17	1441,32
528,27	1443,35
528,37	1370,81
528,46	1361,32
528,56	1453,97
528,66	1427,76
528,76	1343,24
528,86	1436,80
528,95	1382,79
529,05	1395,67
529,15	1387,31
529,25	1422,56
529,35	1428,89
529,44	1423,92
529,54	1443,35
529,64	1412,39
529,74	1377,36
529,83	1370,13
529,93	1386,18
530,03	1413,75
530,13	1403,35
530,22	1464,82
530,32	1451,94
530,42	1425,50
530,52	1346,63
530,61	1432,50
530,71	1366,52
530,81	1449,00
530,91	1410,13
531,00	1443,80
531,10	1474,99
531,20	1537,13
531,30	1571,71
531,39	1606,74
531,49	1635,21
531,59	1866,39
531,69	1716,79
531,78	1614,87
531,88	1627,98
531,98	1586,40
532,07	1501,66
532,17	1498,94
532,27	1483,12
532,37	1428,66
532,46	1432,96
532,56	1413,52
532,66	1355,90
532,75	1391,83
532,85	1393,18
532,95	1403,58
533,04	1419,40
533,14	1409,68
533,24	1412,62
533,34	1361,09
533,43	1424,60
533,53	1338,04
533,63	1401,09
533,72	1378,72
533,82	1374,43
533,92	1376,01
534,01	1550,24
534,11	1559,28
534,21	1421,21
534,30	1382,79
534,40	1384,60
534,50	1367,20
534,59	1367,87
534,69	1335,56
534,79	1397,93
534,88	1434,54
534,98	1418,95
535,08	1353,64
535,17	1418,27
535,27	1382,79
535,36	1379,40
535,46	1409,91
535,56	1328,10
535,65	1412,17
535,75	1413,75
535,85	1412,39
535,94	1367,87
536,04	1396,12
536,14	1419,62
536,23	1443,13
536,33	1379,40
536,42	1383,69
536,52	1373,98
536,62	1355,90
536,71	1437,93
536,81	1393,86
536,90	1392,28
537,00	1402,45
537,10	1366,52
537,19	1407,19
537,29	1405,16
537,38	1464,37
537,48	1398,83
537,58	1430,02
537,67	1392,73
537,77	1397,93
537,86	1395,44
537,96	1517,47
538,06	1463,92
538,15	1437,48
538,25	1610,81
538,34	1635,66
538,44	1626,62
538,53	1569,22
538,63	1599,28
538,73	1576,68
538,82	1554,31
538,92	1532,62
539,01	1649,00
539,11	1510,02
539,20	1677,92
539,30	1576,68
539,39	1535,78
539,49	1619,84
539,59	1609,22
539,68	1748,20
539,78	1729,67
539,87	1678,37
539,97	1673,63
540,06	1686,74
540,16	1631,60
540,25	1711,37
540,35	1773,51
540,44	1733,06
540,54	1808,99
540,63	1715,89
540,73	1696,45
540,82	1758,60
540,92	1714,76
541,01	1772,16
541,11	1811,03
541,20	1754,53
541,30	1757,47
541,39	1784,13
541,49	1764,25
541,58	1823,68
541,68	1830,01
541,77	1772,61
541,87	1737,58
541,96	1734,64
542,06	1837,24
542,15	1804,70
542,25	1886,73
542,34	1858,93
542,44	1799,05
542,53	1831,36
542,63	1875,43
542,72	1842,66
542,82	1827,30
542,91	1878,37
543,01	1858,71
543,10	1922,44
543,20	1908,42
543,29	1965,15
543,38	1981,19
543,48	2062,54
543,57	2136,67
543,67	2246,04
543,76	2351,35
543,86	2481,29
543,95	2650,33
544,05	2821,85
544,14	2889,42
544,23	2756,76
544,33	2705,92
544,42	2736,43
544,52	2692,81
544,61	2843,09
544,71	3222,29
544,80	3810,07
544,89	4500,45
544,99	5237,60
545,08	6006,40
545,18	6420,62
545,27	6786,04
545,36	6721,41
545,46	6207,29
545,55	5549,23
545,65	4771,40
545,74	3975,26
545,84	3263,19
545,93	2762,64
546,02	2408,98
546,12	2211,02
546,21	2063,67
546,30	2007,18
546,40	1983,00
546,49	1900,97
546,59	1932,38
546,68	1883,79
546,77	1943,45
546,87	1896,45
546,96	1904,13
547,05	1893,96
547,15	1843,79
547,24	1866,62
547,34	1854,41
547,43	1853,51
547,52	1892,15
547,62	1861,87
547,71	1901,19
547,80	1884,02
547,90	1839,05
547,99	1961,53
548,08	1865,04
548,18	1793,85
548,27	1803,57
548,36	1792,04
548,46	1822,55
548,55	1786,17
548,64	1824,36
548,74	1786,85
548,83	1811,93
548,92	1909,55
549,02	1783,91
549,11	1966,73
549,20	1879,72
549,30	1812,83
549,39	1832,95
549,48	1855,54
549,58	1815,77
549,67	1881,76
549,76	1853,51
549,85	1807,86
549,95	1847,41
550,04	1879,95
550,13	1812,61
550,23	1872,04
550,32	1799,50
550,41	1798,14
550,50	1846,05
550,60	1947,52
550,69	1849,44
550,78	1806,73
550,88	1880,40
550,97	1866,84
551,06	1847,41
551,15	1841,31
551,25	1951,36
551,34	1801,08
551,43	1804,25
551,52	1850,57
551,62	1910,01
551,71	1924,92
551,80	1885,15
551,89	1874,08
551,99	1856,90
552,08	1848,76
552,17	1836,11
552,26	1849,89
552,36	1818,03
552,45	1841,08
552,54	1812,83
552,63	1876,11
552,73	1952,49
552,82	1947,75
552,91	1856,22
553,00	2000,40
553,10	1855,09
553,19	1964,92
553,28	1845,15
553,37	1881,08
553,46	1822,10
553,56	1898,93
553,65	1844,25
553,74	1818,71
553,83	1851,25
553,92	1868,88
554,02	1867,07
554,11	1843,79
554,20	1815,32
554,29	1940,51
554,38	1842,44
554,48	1848,09
554,57	1835,66
554,66	1854,19
554,75	1912,72
554,84	1926,28
554,94	1894,41
555,03	1864,36
555,12	1843,79
555,21	1839,73
555,30	2010,12
555,39	1892,61
555,49	1886,96
555,58	1937,80
555,67	1967,18
555,76	1975,32
555,85	1894,19
555,94	1914,07
556,03	1907,29
556,13	1953,62
556,22	1933,06
556,31	1933,73
556,40	1886,73
556,49	1997,46
556,58	1957,01
556,67	1959,72
556,77	1933,06
556,86	2058,48
556,95	1996,33
557,04	2056,67
557,13	2094,41
557,22	2062,54
557,31	2021,87
557,40	1998,59
557,50	2102,54
557,59	1980,51
557,68	1974,19
557,77	2050,57
557,86	1968,08
557,95	1973,51
558,04	1947,29
558,13	1929,89
558,22	1961,08
558,31	1897,35
558,41	1905,26
558,50	1978,25
558,59	1961,98
558,68	1987,29
558,77	1968,08
558,86	1851,70
558,95	1876,56
559,04	1954,30
559,13	2001,98
559,22	1879,95
559,31	1933,96
559,40	1891,48
559,49	1905,03
559,59	1949,10
559,68	1869,33
559,77	2010,57
559,86	2049,44
559,95	1925,37
560,04	1911,81
560,13	1952,94
560,22	2041,98
560,31	1914,75
560,40	1924,70
560,49	1839,05
560,58	1909,55
560,67	1880,40
560,76	1875,88
560,85	1852,38
560,94	1955,65
561,03	1886,96
561,12	2114,97
561,21	2055,77
561,30	1916,79
561,39	1902,77
561,48	1921,31
561,57	1850,35
561,66	1950,23
561,75	2012,83
561,84	1906,62
561,93	1883,57
562,02	1924,47
562,11	1869,33
562,20	1879,27
562,29	1914,75
562,38	1850,12
562,47	1956,78
562,56	1921,53
562,65	1913,17
562,74	1922,89
562,83	2088,53
562,92	1956,56
563,01	1994,52
563,10	1891,93
563,19	1917,92
563,28	2131,24
563,37	2007,40
563,46	1872,95
563,55	1911,36
563,64	2085,82
563,73	1888,54
563,82	1970,12
563,91	2051,70
564,00	1935,77
564,09	1870,69
564,18	1932,60
564,27	1877,92
564,35	1937,80
564,44	1907,52
564,53	1975,99
564,62	1950,68
564,71	1939,38
564,80	1942,55
564,89	1941,19
564,98	3443,75
565,07	2048,08
565,16	1896,67
565,25	2253,05
565,34	1927,86
565,43	1928,31
565,51	1922,66
565,60	2045,60
565,69	1899,16
565,78	2030,23
565,87	1874,30
565,96	1884,02
566,05	1952,72
566,14	2011,70
566,23	1948,20
566,32	2048,76
566,40	2012,38
566,49	2012,83
566,58	1926,28
566,67	1961,98
566,76	1911,59
566,85	1948,65
566,94	1973,51
567,03	1993,17
567,11	1931,25
567,20	1956,11
567,29	2024,35
567,38	1988,20
567,47	1887,18
567,56	1930,12
567,65	1963,79
567,73	1897,80
567,82	1914,75
567,91	1963,56
568,00	1940,97
568,09	2060,74
568,18	1954,07
568,27	1934,64
568,35	1953,39
568,44	1998,37
568,53	1972,83
568,62	1907,52
568,71	1904,36
568,80	1945,03
568,88	1984,35
568,97	2036,56
569,06	1935,77
569,15	1919,95
569,24	1985,26
569,32	2013,96
569,41	1987,07
569,50	1934,41
569,59	1915,43
569,68	1903,45
569,76	1953,85
569,85	1991,13
569,94	1989,10
570,03	1913,17
570,12	1987,07
570,20	1952,04
570,29	1984,35
570,38	1997,01
570,47	1960,63
570,56	1915,20
570,64	1937,80
570,73	1932,83
570,82	2031,81
570,91	2010,12
570,99	1919,05
571,08	1938,93
571,17	1946,62
571,26	2043,34
571,34	1950,68
571,43	1978,93
571,52	2006,50
571,61	1920,85
571,69	1918,14
571,78	2000,63
571,87	2026,16
571,96	2008,76
572,04	2033,39
572,13	2020,74
572,22	1923,57
572,31	1932,60
572,39	1961,76
572,48	1993,39
572,57	1961,08
572,66	1953,17
572,74	1909,10
572,83	1999,27
572,92	1971,70
573,00	1924,02
573,09	2009,44
573,18	2020,51
573,27	2013,73
573,35	1955,65
573,44	1946,62
573,53	1974,19
573,61	1980,06
573,70	1998,82
573,79	1936,67
573,87	2065,93
573,96	1951,36
574,05	1971,93
574,14	1967,63
574,22	1947,07
574,31	2028,20
574,40	1954,98
574,48	1988,87
574,57	1982,09
574,66	1953,17
574,74	1983,00
574,83	2063,67
574,92	2042,88
575,00	1960,17
575,09	2041,30
575,18	1967,63
575,26	2077,69
575,35	1944,13
575,43	1989,78
575,52	2021,87
575,61	2006,05
575,69	2052,60
575,78	1950,46
575,87	2112,71
575,95	2029,55
576,04	1972,83
576,13	1999,95
576,21	1965,60
576,30	2018,70
576,38	1987,07
576,47	1996,78
576,56	1938,03
576,64	1990,68
576,73	2042,21
576,82	2001,08
576,90	2025,48
576,99	1999,72
577,07	1961,76
577,16	1958,59
577,25	1996,11
577,33	2152,71
577,42	2016,44
577,50	1961,08
577,59	2020,96
577,68	2042,66
577,76	1999,72
577,85	2008,08
577,93	1999,27
578,02	1988,20
578,10	2023,90
578,19	2003,34
578,28	1988,20
578,36	1977,12
578,45	1993,62
578,53	1926,05
578,62	1968,08
578,70	1965,37
578,79	1994,52
578,88	2003,34
578,96	1965,15
579,05	1973,96
579,13	2093,50
579,22	2025,71
579,30	1958,37
579,39	1994,75
579,47	2055,54
579,56	1962,21
579,64	2242,43
579,73	1972,15
579,82	2004,24
579,90	1963,56
579,99	1983,00
580,07	2006,50
580,16	1995,65
580,24	2018,70
580,33	1936,22
580,41	2023,68
580,50	1970,34
580,58	1995,88
580,67	1988,42
580,75	2011,47
580,84	1979,16
580,92	1953,85
581,01	2089,89
581,09	1968,08
581,18	1977,12
581,26	1958,37
581,35	1945,71
581,43	2042,66
581,52	2013,96
581,60	2011,47
581,69	1982,32
581,77	2018,93
581,86	2014,18
581,94	1979,61
582,02	2019,38
582,11	1954,30
582,19	2054,86
582,28	2107,29
582,36	2082,43
582,45	2120,17
582,53	1969,21
582,62	1965,15
582,70	1962,66
582,79	2006,73
582,87	1947,07
582,96	2018,48
583,04	2081,30
583,12	2014,64
583,21	1997,46
583,29	2045,14
583,38	2007,18
583,46	1985,71
583,55	1984,81
583,63	1949,78
583,71	2050,57
583,80	2023,00
583,88	1958,59
583,97	2157,01
584,05	2013,05
584,13	2027,74
584,22	2008,53
584,30	1984,58
584,39	2059,83
584,47	2048,53
584,55	1975,99
584,64	2021,19
584,72	2013,51
584,81	1953,39
584,89	1985,48
584,97	1950,46
585,06	2001,76
585,14	2001,30
585,23	2020,96
585,31	1964,47
585,39	1979,83
585,48	2015,54
585,56	1965,60
585,64	2022,77
585,73	2008,53
585,81	1981,87
585,90	2048,53
585,98	1994,98
586,06	2020,96
586,15	2102,54
586,23	1938,25
586,31	1968,54
586,40	1974,86
586,48	2070,68
586,56	1964,92
586,65	1963,79
586,73	1976,45
586,81	2046,50
586,90	2009,21
586,98	1957,91
587,06	1943,45
587,15	2004,47
587,23	1962,43
587,31	1998,37
587,40	1972,15
587,48	1966,73
587,56	2061,64
587,65	2179,38
587,73	2030,23
587,81	1999,72
587,90	2108,19
587,98	1986,61
588,06	1960,40
588,14	1980,74
588,23	1948,65
588,31	2070,00
588,39	2022,09
588,48	1992,26
588,56	1943,00
588,64	2005,60
588,72	2023,00
588,81	1979,83
588,89	1992,72
588,97	1992,94
589,06	2078,59
589,14	2060,51
589,22	2005,37
589,30	1973,28
589,39	1992,04
589,47	2036,78
589,55	2089,21
589,63	1997,24
589,72	1977,80
589,80	1948,65
589,88	2029,55
589,96	2051,25
590,05	2010,12
590,13	2018,48
590,21	2038,36
590,29	2102,09
590,38	2028,65
590,46	2048,76
590,54	1963,34
590,62	1961,76
590,71	2021,42
590,79	2053,05
590,87	1927,41
590,95	1964,24
591,03	1965,82
591,12	2001,30
591,20	1990,68
591,28	2082,66
591,36	1992,04
591,44	1967,41
591,53	1978,25
591,61	1982,55
591,69	1950,68
591,77	1990,68
591,85	2004,92
591,94	1961,53
592,02	1949,78
592,10	2019,16
592,18	2023,45
592,26	1976,67
592,34	1930,12
592,43	1929,21
592,51	1920,63
592,59	1937,35
592,67	1949,10
592,75	1968,76
592,84	1969,21
592,92	2028,20
593,00	1992,26
593,08	1968,99
593,16	1948,20
593,24	1943,00
593,32	1997,01
593,41	1986,61
593,49	1939,16
593,57	1938,71
593,65	1930,80
593,73	1972,83
593,81	1989,78
593,89	2044,92
593,98	1976,45
594,06	1973,28
594,14	1975,99
594,22	1978,25
594,30	1986,61
594,38	1957,01
594,46	2065,48
594,54	2033,39
594,62	2015,09
594,71	1977,12
594,79	1964,47
594,87	1956,33
594,95	1971,93
595,03	2030,91
595,11	1969,89
595,19	2070,68
595,27	1987,52
595,35	1940,29
595,43	1917,92
595,52	1938,03
595,60	1940,29
595,68	2104,13
595,76	1942,32
595,84	2013,05
595,92	1915,66
596,00	2052,38
596,08	2021,87
596,16	1984,13
596,24	1968,08
596,32	1964,24
596,40	2009,21
596,48	1993,62
596,56	1985,26
596,64	1910,46
596,73	2036,56
596,81	1963,79
596,89	1974,64
596,97	1903,68
597,05	2120,40
597,13	1975,09
597,21	1908,65
597,29	1934,86
597,37	2023,68
597,45	1966,28
597,53	1936,45
597,61	1962,66
597,69	1997,69
597,77	1954,30
597,85	1941,87
597,93	1966,28
598,01	1943,23
598,09	2011,02
598,17	1954,07
598,25	1936,22
598,33	1911,14
598,41	1937,58
598,49	1904,13
598,57	1952,27
598,65	1951,36
598,73	1966,95
598,81	1983,00
598,89	1947,52
598,97	1896,22
599,05	2012,60
599,13	1948,42
599,21	1921,76
599,29	1946,84
599,37	1967,63
599,45	1928,31
599,53	2025,94
599,61	1928,76
599,69	1947,07
599,77	1939,84
599,85	1922,21
599,93	1962,66
600,00	1926,50
600,08	1971,93
600,16	1903,90
600,24	1908,20
600,32	2051,47
600,40	2074,75
600,48	2042,21
600,56	1990,91
600,64	2025,03
600,72	1931,70
600,80	1970,12
600,88	1964,47
600,96	2012,60
601,04	1908,65
601,12	1919,95
601,19	1888,31
601,27	1918,82
601,35	1954,52
601,43	1926,28
601,51	1959,95
601,59	1927,18
601,67	1899,16
601,75	1918,14
601,83	1929,89
601,91	1874,98
601,98	1913,62
602,06	1970,34
602,14	1933,06
602,22	1962,43
602,30	1991,81
602,38	1945,03
602,46	1909,33
602,54	1982,55
602,61	1972,83
602,69	1961,53
602,77	1901,19
602,85	1914,75
602,93	1895,09
603,01	1953,85
603,09	2007,63
603,17	1919,50
603,24	1963,34
603,32	1911,36
603,40	1928,08
603,48	1948,42
603,56	1881,31
603,64	1889,22
603,71	1905,49
603,79	1931,70
603,87	1973,28
603,95	2068,42
604,03	1920,18
604,11	1985,03
604,18	1965,60
604,26	1890,12
604,34	1863,91
604,42	1943,45
604,50	1881,08
604,57	1882,66
604,65	1899,61
604,73	1902,32
604,81	1911,14
604,89	1860,06
604,96	1917,46
605,04	1962,89
605,12	1921,98
605,20	1937,35
605,28	2015,31
605,35	1935,32
605,43	1924,92
605,51	1914,53
605,59	1967,63
605,67	2023,90
605,74	1931,02
605,82	1914,98
605,90	1881,53
605,98	1953,85
606,05	1923,57
606,13	1954,30
606,21	1923,79
606,29	1881,31
606,36	1913,62
606,44	1880,40
606,52	1913,17
606,60	1919,27
606,67	1843,12
606,75	1901,87
606,83	1852,83
606,91	1947,75
606,98	1870,91
607,06	1903,45
607,14	1910,23
607,22	1896,90
607,29	1886,28
607,37	1902,55
607,45	1919,50
607,52	1951,36
607,60	1922,66
607,68	1883,11
607,76	1925,60
607,83	1850,80
607,91	1899,61
607,99	1931,02
608,06	1906,39
608,14	1877,69
608,22	1879,05
608,30	1981,64
608,37	1858,93
608,45	1837,47
608,53	1886,96
608,60	1893,96
608,68	1885,15
608,76	1899,39
608,83	1934,86
608,91	1839,50
608,99	1905,94
609,06	1877,92
609,14	1928,08
609,22	1858,26
609,29	1872,27
609,37	1823,23
609,45	1917,01
609,52	1841,53
609,60	1861,87
609,68	1860,74
609,75	1907,97
609,83	1820,52
609,91	1996,56
609,98	1869,78
610,06	1839,73
610,13	1874,30
610,21	1889,89
610,29	1890,12
610,36	1853,74
610,44	1871,14
610,52	1870,01
610,59	1835,43
610,67	1841,76
610,74	1876,11
610,82	1844,70
610,90	1893,96
610,97	1872,49
611,05	1889,22
611,13	1872,27
611,20	1947,75
611,28	1832,04
611,35	1851,93
611,43	1823,00
611,51	1888,54
611,58	1860,97
611,66	1934,86
611,73	1836,79
611,81	1919,95
611,88	1875,43
611,96	1912,27
612,04	1840,86
612,11	1825,26
612,19	1938,93
612,26	1830,91
612,34	1881,31
612,41	1851,70
612,49	1794,30
612,57	1791,37
612,64	1810,57
612,72	1922,21
612,79	1968,31
612,87	1815,77
612,94	1805,15
613,02	1853,74
613,09	1836,79
613,17	1859,61
613,24	1808,99
613,32	1877,24
613,40	1807,18
613,47	1827,97
613,55	1806,28
613,62	1872,95
613,70	1890,12
613,77	1807,64
613,85	1866,62
613,92	1820,52
614,00	1783,00
614,07	1794,53
614,15	1758,82
614,22	1802,89
614,30	1815,55
614,37	1778,03
614,45	1793,85
614,52	1781,42
614,60	1792,72
614,67	1852,83
614,75	1776,90
614,82	1827,97
614,90	1770,57
614,97	1775,77
615,05	1885,83
615,12	1839,27
615,20	1800,86
615,27	1788,88
615,34	1811,25
615,42	1763,12
615,49	1794,08
615,57	1745,04
615,64	1770,12
615,72	1745,72
615,79	1750,91
615,87	1804,02
615,94	1820,52
616,02	1794,30
616,09	1827,52
616,16	1790,46
616,24	1793,63
616,31	1740,52
616,39	1826,17
616,46	1848,54
616,54	1783,23
616,61	1857,35
616,68	1723,57
616,76	1739,39
616,83	1764,25
616,91	1712,72
616,98	1707,98
617,06	1804,25
617,13	1732,61
617,20	1740,29
617,28	1767,86
617,35	1724,47
617,43	1799,95
617,50	1714,08
617,57	1744,36
>>>>>End Processed Spectral Data<<<<<
