SpectraSuite Datei
++++++++++++++++++++++++++++++++++++
Datum: Sun Jan 04 06:23:25 CET 2004
Benutzer: H. Stützler
Dark-Spektrum vorhanden: Nein
Referenz-Spektrum vorhanden: Nein
Zahl der probierten Teilspektren: 1
Spektrometer: USB2+H04734
Integrationszeit (usec): 1000000 (USB2+H04734)
Spektren Durchschnitt berechnet: 10 (USB2+H04734)
Boxcar Glättung: 0 (USB2+H04734)
Dunkelstromkorrektur: Nein (USB2+H04734)
Puls/Lampe aktiviert: Nein (USB2+H04734)
Correct for Detector Non-linearity: Nein (USB2+H04734)
Streulichtkorrektur: Nein (USB2+H04734)
Anzahl Pixel in verarbeitetem Spektrum: 2048
>>>>>Begin Processed Spectral Data<<<<<
418,45	1213,98
418,57	1213,98
418,69	1213,98
418,80	1145,05
418,92	1129,24
419,04	1331,72
419,16	1221,21
419,28	1198,61
419,40	1178,73
419,52	1224,83
419,64	1190,48
419,75	1185,51
419,87	1206,75
419,99	1194,09
420,11	1198,61
420,23	1240,65
420,35	1260,31
420,47	1239,74
420,58	1235,67
420,70	1258,05
420,82	1265,50
420,94	1318,84
421,06	1382,11
421,18	1341,89
421,29	1333,98
421,41	1325,84
421,53	1352,73
421,65	1399,51
421,77	1407,19
421,89	1384,82
422,00	1496,01
422,12	1399,51
422,24	1385,50
422,36	1471,83
422,48	1448,55
422,59	1411,71
422,71	1438,83
422,83	1377,36
422,95	1387,76
423,07	1436,35
423,18	1503,01
423,30	1461,20
423,42	1386,40
423,54	1427,08
423,66	1401,09
423,77	1435,89
423,89	1406,29
424,01	1374,43
424,13	1376,91
424,25	1385,50
424,36	1427,08
424,48	1415,56
424,60	1387,31
424,72	1466,40
424,84	1387,53
424,95	1463,46
425,07	1421,43
425,19	1394,31
425,31	1413,07
425,42	1369,68
425,54	1426,18
425,66	1444,03
425,78	1379,17
425,89	1413,07
426,01	1383,92
426,13	1401,77
426,25	1430,24
426,36	1384,82
426,48	1404,48
426,60	1451,94
426,72	1410,13
426,83	1441,54
426,95	1417,82
427,07	1394,09
427,19	1506,63
427,30	1415,10
427,42	1374,20
427,54	1393,86
427,66	1387,08
427,77	1392,51
427,89	1410,81
428,01	1409,45
428,12	1433,86
428,24	1385,05
428,36	1369,23
428,48	1356,80
428,59	1354,77
428,71	1415,56
428,83	1369,00
428,94	1413,97
429,06	1367,42
429,18	1425,27
429,30	1428,89
429,41	1395,90
429,53	1442,00
429,65	1438,38
429,76	1416,69
429,88	1400,42
430,00	1407,19
430,11	1450,13
430,23	1391,38
430,35	1480,19
430,47	1399,06
430,58	1374,65
430,70	1439,28
430,82	1421,21
430,93	1571,03
431,05	1421,88
431,17	1409,68
431,28	1458,27
431,40	1371,72
431,52	1465,50
431,63	1405,84
431,75	1391,38
431,87	1393,64
431,98	1424,82
432,10	1402,45
432,22	1373,52
432,33	1470,24
432,45	1394,31
432,56	1397,70
432,68	1445,84
432,80	1376,91
432,91	1448,32
433,03	1419,40
433,15	1465,72
433,26	1421,66
433,38	1407,65
433,50	1373,75
433,61	1454,43
433,73	1498,27
433,84	1413,30
433,96	1389,79
434,08	1425,05
434,19	1391,15
434,31	1408,32
434,43	1404,48
434,54	1391,38
434,66	1382,34
434,77	1377,36
434,89	1433,41
435,01	1430,92
435,12	1371,94
435,24	1378,72
435,35	1367,87
435,47	1484,48
435,59	1397,93
435,70	1395,44
435,82	1415,10
435,93	1437,93
436,05	1418,49
436,17	1421,21
436,28	1430,24
436,40	1423,01
436,51	1363,58
436,63	1399,96
436,74	1439,28
436,86	1474,54
436,98	1637,25
437,09	1393,41
437,21	1451,71
437,32	1360,64
437,44	1427,99
437,55	1402,67
437,67	1780,29
437,79	1529,23
437,90	1439,28
438,02	1387,99
438,13	2221,64
438,25	1494,42
438,36	1444,26
438,48	1441,09
438,59	1452,17
438,71	1420,98
438,83	1389,57
438,94	1364,71
439,06	1451,04
439,17	1446,29
439,29	1391,38
439,40	1402,00
439,52	1391,60
439,63	1440,64
439,75	1385,95
439,86	1366,97
439,98	1407,87
440,09	1450,81
440,21	1390,70
440,32	1391,60
440,44	1375,78
440,55	1397,25
440,67	1374,65
440,78	1457,59
440,90	1380,30
441,01	1397,93
441,13	1372,17
441,24	1424,14
441,36	1476,80
441,47	1404,03
441,59	1447,87
441,70	1418,49
441,82	1468,21
441,93	1420,98
442,05	1366,07
442,16	1407,65
442,28	1371,26
442,39	1402,00
442,51	1441,09
442,62	1405,84
442,74	1450,81
442,85	1424,82
442,97	1513,18
443,08	1443,35
443,20	1434,31
443,31	1433,86
443,43	1382,79
443,54	1423,69
443,66	1364,94
443,77	1383,47
443,88	1367,42
444,00	1425,73
444,11	1444,93
444,23	1481,77
444,34	1398,38
444,46	1391,60
444,57	1473,18
444,69	1469,11
444,80	1435,22
444,91	1532,39
445,03	1388,21
445,14	1439,74
445,26	1352,96
445,37	1383,47
445,49	1401,32
445,60	1450,81
445,71	1486,74
445,83	1416,91
445,94	1361,32
446,06	1446,29
446,17	1355,22
446,29	1353,41
446,40	1413,07
446,51	1454,65
446,63	1408,10
446,74	1366,52
446,86	1376,46
446,97	1480,87
447,08	1391,83
447,20	1391,38
447,31	1368,55
447,43	1423,92
447,54	1423,24
447,65	1424,37
447,77	1382,56
447,88	1414,88
448,00	1415,33
448,11	1370,36
448,22	1408,55
448,34	1422,11
448,45	1355,44
448,56	1422,34
448,68	1433,18
448,79	1472,96
448,90	1436,57
449,02	1385,73
449,13	1397,93
449,25	1441,54
449,36	1420,53
449,47	1406,97
449,59	1470,24
449,70	1414,43
449,81	1393,86
449,93	1405,16
450,04	1390,02
450,15	1444,93
450,27	1411,71
450,38	1424,82
450,49	1391,83
450,61	1496,23
450,72	1409,68
450,83	1441,77
450,95	1413,52
451,06	1436,12
451,17	1478,38
451,29	1449,91
451,40	1376,46
451,51	1365,16
451,63	1378,95
451,74	1475,22
451,85	1403,13
451,97	1459,85
452,08	1420,53
452,19	1389,57
452,31	1482,90
452,42	1428,44
452,53	1501,43
452,65	1481,32
452,76	1369,23
452,87	1356,35
452,98	1378,72
453,10	1380,98
453,21	1385,50
453,32	1404,26
453,44	1379,40
453,55	1357,25
453,66	1545,27
453,77	1449,45
453,89	1430,70
454,00	1503,46
454,11	1433,86
454,23	1436,35
454,34	1419,85
454,45	1364,71
454,56	1439,74
454,68	1530,81
454,79	1427,99
454,90	1437,93
455,01	1375,78
455,13	1396,57
455,24	1491,03
455,35	1397,70
455,46	1373,98
455,58	1380,30
455,69	1476,12
455,80	1433,41
455,91	1393,18
456,03	1423,47
456,14	1477,93
456,25	1397,03
456,36	1363,81
456,48	1415,56
456,59	1462,11
456,70	1397,93
456,81	1453,75
456,92	1513,41
457,04	1457,36
457,15	1552,95
457,26	1392,51
457,37	1387,76
457,49	1398,61
457,60	1392,05
457,71	1437,70
457,82	1456,68
457,93	1428,44
458,05	1451,04
458,16	1393,64
458,27	1411,49
458,38	1425,50
458,49	1424,60
458,61	1405,61
458,72	1415,78
458,83	1432,96
458,94	1439,06
459,05	1435,22
459,17	1690,58
459,28	1391,15
459,39	1415,33
459,50	1382,11
459,61	1472,50
459,72	1367,65
459,84	1405,16
459,95	1402,67
460,06	1661,43
460,17	1392,05
460,28	1401,77
460,39	1395,67
460,51	1418,95
460,62	1405,39
460,73	1421,21
460,84	1375,33
460,95	1493,75
461,06	1486,51
461,18	1472,50
461,29	1497,59
461,40	1424,82
461,51	1408,32
461,62	1560,41
461,73	1428,44
461,84	1445,39
461,96	1449,00
462,07	1444,26
462,18	1383,24
462,29	1410,13
462,40	1442,22
462,51	1401,55
462,62	1487,64
462,73	1489,23
462,85	1440,87
462,96	1441,77
463,07	1459,40
463,18	1554,31
463,29	1450,81
463,40	1386,63
463,51	1395,90
463,62	1381,88
463,73	1454,88
463,85	1383,01
463,96	1448,78
464,07	1419,40
464,18	1409,91
464,29	1398,61
464,40	1509,34
464,51	1432,28
464,62	1405,16
464,73	1379,17
464,84	1450,81
464,95	1429,57
465,06	1412,62
465,18	1378,72
465,29	1459,17
465,40	1407,42
465,51	1427,53
465,62	1456,91
465,73	1419,17
465,84	1425,95
465,95	1438,38
466,06	1402,90
466,17	1424,82
466,28	1416,46
466,39	1469,34
466,50	1371,49
466,61	1375,33
466,72	1427,99
466,83	1375,33
466,95	1406,74
467,06	1371,49
467,17	1415,78
467,28	1396,35
467,39	1414,65
467,50	1449,00
467,61	1366,52
467,72	1385,73
467,83	1373,52
467,94	1415,33
468,05	1374,20
468,16	1439,51
468,27	1410,81
468,38	1396,12
468,49	1481,77
468,60	1378,27
468,71	1486,06
468,82	1472,96
468,93	1454,88
469,04	1500,53
469,15	1412,84
469,26	1403,13
469,37	1402,22
469,48	1474,76
469,59	1442,22
469,70	1376,46
469,81	1423,24
469,92	1352,05
470,03	1436,35
470,14	1394,99
470,25	1452,62
470,36	1407,19
470,47	1378,95
470,58	1390,47
470,69	1449,91
470,80	1450,36
470,91	1392,73
471,02	1409,91
471,13	1418,72
471,24	1418,49
471,35	1399,06
471,46	1487,19
471,56	1449,91
471,67	1477,93
471,78	1516,80
471,89	1394,09
472,00	1387,08
472,11	1451,04
472,22	1464,82
472,33	1413,97
472,44	1434,09
472,55	1405,39
472,66	1440,87
472,77	1396,12
472,88	1519,06
472,99	1478,38
473,10	1396,12
473,21	1417,36
473,32	1414,65
473,42	1393,41
473,53	1383,69
473,64	1427,76
473,75	1441,77
473,86	1425,27
473,97	1450,13
474,08	1428,89
474,19	1456,23
474,30	1541,65
474,41	1438,15
474,52	1419,62
474,62	1445,39
474,73	1388,89
474,84	1518,83
474,95	1449,45
475,06	1463,46
475,17	1380,08
475,28	1358,83
475,39	1405,61
475,50	1410,13
475,60	1395,44
475,71	1383,01
475,82	1477,93
475,93	1391,38
476,04	1482,22
476,15	1432,73
476,26	1435,89
476,37	1389,79
476,47	1418,95
476,58	1386,40
476,69	1366,52
476,80	1386,86
476,91	1394,54
477,02	1430,24
477,13	1421,43
477,23	1414,88
477,34	1420,30
477,45	1440,41
477,56	1391,83
477,67	1412,17
477,78	1420,08
477,89	1403,58
477,99	1394,54
478,10	1452,84
478,21	1416,01
478,32	1428,21
478,43	1408,78
478,54	1512,28
478,64	1446,97
478,75	1426,40
478,86	1409,91
478,97	1413,07
479,08	1397,70
479,18	1403,80
479,29	1397,70
479,40	1383,01
479,51	1367,20
479,62	1399,96
479,72	1387,53
479,83	1369,91
479,94	1433,86
480,05	1451,71
480,16	1391,15
480,26	1425,95
480,37	1393,64
480,48	1447,87
480,59	1427,76
480,70	1410,81
480,80	1401,55
480,91	1402,90
481,02	1397,25
481,13	1418,95
481,24	1412,39
481,34	1382,56
481,45	1527,19
481,56	1398,61
481,67	1393,18
481,77	1406,06
481,88	1406,97
481,99	1425,05
482,10	1424,37
482,20	1744,81
482,31	1413,97
482,42	1427,53
482,53	1393,86
482,63	1504,37
482,74	1463,92
482,85	1401,77
482,96	1410,81
483,06	1377,82
483,17	1425,95
483,28	1394,09
483,39	1424,60
483,49	1441,32
483,60	1552,50
483,71	1387,76
483,81	1465,05
483,92	1429,57
484,03	1413,97
484,14	1413,07
484,24	1378,04
484,35	1426,18
484,46	1436,35
484,57	1415,78
484,67	1439,28
484,78	1380,30
484,89	1510,69
484,99	1406,74
485,10	1402,00
485,21	1453,07
485,31	1442,00
485,42	1452,17
485,53	1401,77
485,63	1413,75
485,74	1512,50
485,85	1564,25
485,96	1472,73
486,06	1401,77
486,17	1432,96
486,28	1423,69
486,38	1380,08
486,49	1460,30
486,60	1398,83
486,70	1394,09
486,81	1377,82
486,92	1400,42
487,02	1386,86
487,13	1372,17
487,24	1399,51
487,34	1392,05
487,45	1502,11
487,56	1431,60
487,66	1378,95
487,77	1424,82
487,87	1420,08
487,98	1369,23
488,09	1394,31
488,19	1373,52
488,30	1568,55
488,41	1410,81
488,51	1373,98
488,62	1400,42
488,73	1391,83
488,83	1427,53
488,94	1450,36
489,04	1493,52
489,15	1399,06
489,26	1387,08
489,36	1431,60
489,47	1406,06
489,58	1399,29
489,68	1452,84
489,79	1388,44
489,89	1420,30
490,00	1405,61
490,11	1444,26
490,21	1451,04
490,32	1410,13
490,42	1408,10
490,53	1416,91
490,64	1385,73
490,74	1385,73
490,85	1380,75
490,95	1450,13
491,06	1432,73
491,16	1394,31
491,27	1450,36
491,38	1411,94
491,48	1535,78
491,59	1507,76
491,69	1450,13
491,80	1392,05
491,90	1486,51
492,01	1397,70
492,12	1460,07
492,22	1417,59
492,33	1472,28
492,43	1434,76
492,54	1401,09
492,64	1395,67
492,75	1427,76
492,86	1430,70
492,96	1413,75
493,07	1410,58
493,17	1439,28
493,28	1449,91
493,38	1435,22
493,49	1401,55
493,59	1461,43
493,70	1436,35
493,80	1413,52
493,91	1370,59
494,01	1395,90
494,12	1399,96
494,22	1468,89
494,33	1513,86
494,43	1500,75
494,54	1535,10
494,64	1456,23
494,75	1404,03
494,86	1494,20
494,96	1395,44
495,07	1426,18
495,17	1491,71
495,28	1415,10
495,38	1407,65
495,49	1446,52
495,59	1456,01
495,69	1420,30
495,80	1507,76
495,90	1390,92
496,01	1397,93
496,11	1444,48
496,22	1424,37
496,32	1393,64
496,43	1455,78
496,53	1414,65
496,64	1403,80
496,74	1434,09
496,85	1444,71
496,95	1431,37
497,06	1446,52
497,16	1449,68
497,27	1428,44
497,37	1483,80
497,48	1392,73
497,58	1404,03
497,68	1433,41
497,79	1497,36
497,89	1417,82
498,00	1456,68
498,10	1404,26
498,21	1477,70
498,31	1402,67
498,42	1421,88
498,52	1482,22
498,62	1425,05
498,73	1454,20
498,83	1469,79
498,94	1420,98
499,04	1499,17
499,15	1428,44
499,25	1409,91
499,35	1463,01
499,46	1547,98
499,56	1544,59
499,67	1476,12
499,77	1394,31
499,87	1413,97
499,98	1400,87
500,08	1402,67
500,19	1420,75
500,29	1434,54
500,39	1451,04
500,50	1467,31
500,60	1434,76
500,71	1434,31
500,81	1440,64
500,91	1409,45
501,02	1433,63
501,12	1489,68
501,22	1417,14
501,33	1452,39
501,43	1476,80
501,54	1423,01
501,64	1420,98
501,74	1428,89
501,85	1509,11
501,95	1419,17
502,05	1418,04
502,16	1436,80
502,26	1513,63
502,37	1480,64
502,47	1460,53
502,57	1448,78
502,68	1424,14
502,78	1431,15
502,88	1481,32
502,99	1453,30
503,09	1500,75
503,19	1429,34
503,30	1404,71
503,40	1418,27
503,50	1425,50
503,61	1460,30
503,71	1416,46
503,81	1460,98
503,92	1474,99
504,02	1511,37
504,12	1663,01
504,23	1519,28
504,33	1472,50
504,43	1460,30
504,54	1512,05
504,64	1499,62
504,74	1654,87
504,84	1476,12
504,95	1461,88
505,05	1433,18
505,15	1540,07
505,26	1429,57
505,36	1448,32
505,46	1452,17
505,56	1501,88
505,67	1511,37
505,77	1490,58
505,87	1460,07
505,98	1444,71
506,08	1444,71
506,18	1487,87
506,28	1490,36
506,39	1492,84
506,49	1485,16
506,59	1459,85
506,70	1460,98
506,80	1492,62
506,90	1617,36
507,00	1449,68
507,11	1492,62
507,21	1537,59
507,31	1533,07
507,41	1505,05
507,52	1478,83
507,62	1524,25
507,72	1574,87
507,82	1582,33
507,93	1517,47
508,03	1580,52
508,13	1543,91
508,23	1529,68
508,34	1533,52
508,44	1501,20
508,54	1485,16
508,64	1516,12
508,74	1489,90
508,85	1496,23
508,95	1529,00
509,05	1481,32
509,15	1525,84
509,26	1560,86
509,36	1493,29
509,46	1537,59
509,56	1513,86
509,66	1539,85
509,77	1520,41
509,87	1517,02
509,97	1530,81
510,07	1519,06
510,17	1498,49
510,28	1660,30
510,38	1595,21
510,48	1522,45
510,58	1567,42
510,68	1543,46
510,78	1537,36
510,89	1534,65
510,99	1504,59
511,09	1582,33
511,19	1607,42
511,29	1530,58
511,39	1588,43
511,50	1630,92
511,60	1518,60
511,70	1581,20
511,80	1604,93
511,90	1621,88
512,00	1564,25
512,11	1556,57
512,21	1582,11
512,31	1548,89
512,41	1646,96
512,51	1586,40
512,61	1693,51
512,71	1585,27
512,82	1581,88
512,92	1547,30
513,02	1626,85
513,12	1597,47
513,22	1569,45
513,32	1661,88
513,42	1608,09
513,53	1663,01
513,63	1630,92
513,73	1658,04
513,83	1579,39
513,93	1617,81
514,03	1649,45
514,13	1689,67
514,23	1639,96
514,33	1630,47
514,44	1643,80
514,54	1636,57
514,64	1742,55
514,74	1630,69
514,84	1643,57
514,94	1708,43
515,04	1700,52
515,14	1671,37
515,24	1681,09
515,34	1686,51
515,44	1647,87
515,55	1629,56
515,65	1717,92
515,75	1669,79
515,85	1672,27
515,95	1742,10
516,05	1762,89
516,15	1774,19
516,25	1719,05
516,35	1735,77
516,45	1740,75
516,55	1723,57
516,65	1754,76
516,75	1906,39
516,85	1815,77
516,95	1844,70
517,05	1843,12
517,16	1800,63
517,26	1991,36
517,36	1843,34
517,46	1847,41
517,56	1964,69
517,66	2091,92
517,76	2300,05
517,86	2717,22
517,96	3396,75
518,06	4087,12
518,16	4919,19
518,26	5616,80
518,36	6130,01
518,46	6344,47
518,56	6361,19
518,66	6031,03
518,76	5474,66
518,86	4895,01
518,96	4268,59
519,06	3832,67
519,16	3474,71
519,26	3197,66
519,36	3161,72
519,46	3059,58
519,56	3074,95
519,66	3062,29
519,76	2830,21
519,86	2725,58
519,96	2594,06
520,06	2455,08
520,16	2452,59
520,26	2326,94
520,36	2204,24
520,46	2159,94
520,56	2123,11
520,66	2099,15
520,76	2089,44
520,86	2071,58
520,96	2118,36
521,06	2102,77
521,16	2062,54
521,26	2052,83
521,35	2071,81
521,45	2026,61
521,55	2048,53
521,65	2073,17
521,75	2018,93
521,85	2001,08
521,95	2063,22
522,05	2037,46
522,15	2050,12
522,25	2461,40
522,35	2147,51
522,45	2078,82
522,55	2154,29
522,65	2123,79
522,75	2086,95
522,85	2104,13
522,94	2069,55
523,04	2103,00
523,14	2048,08
523,24	1977,12
523,34	1980,51
523,44	1970,12
523,54	1877,69
523,64	1857,80
523,74	1901,64
523,84	1805,38
523,94	1732,61
524,03	1659,17
524,13	1668,66
524,23	1612,16
524,33	1583,46
524,43	1569,22
524,53	1522,90
524,63	1483,58
524,73	1448,55
524,83	1448,78
524,92	1448,55
525,02	1428,66
525,12	1490,13
525,22	1438,15
525,32	1400,19
525,42	1488,32
525,52	1413,97
525,61	1442,90
525,71	1409,91
525,81	1443,58
525,91	1387,08
526,01	1427,08
526,11	1451,04
526,21	1466,40
526,30	1465,05
526,40	1418,27
526,50	1404,93
526,60	1439,28
526,70	1465,27
526,80	1454,20
526,89	1437,70
526,99	1409,91
527,09	1439,74
527,19	1440,87
527,29	1448,32
527,39	1393,64
527,48	1441,32
527,58	1453,75
527,68	1398,38
527,78	1484,25
527,88	1525,84
527,97	1411,49
528,07	1394,54
528,17	1486,06
528,27	1457,81
528,37	1448,32
528,46	1399,51
528,56	1534,65
528,66	1448,78
528,76	1401,55
528,86	1460,07
528,95	1418,49
529,05	1428,21
529,15	1460,07
529,25	1456,23
529,35	1467,76
529,44	1464,37
529,54	1489,00
529,64	1450,58
529,74	1420,30
529,83	1402,00
529,93	1423,01
530,03	1441,09
530,13	1422,11
530,22	1485,16
530,32	1497,81
530,42	1466,85
530,52	1395,22
530,61	1489,45
530,71	1412,17
530,81	1522,90
530,91	1591,82
531,00	1877,24
531,10	2202,20
531,20	2729,87
531,30	2922,64
531,39	3110,20
531,49	3254,15
531,59	3605,10
531,69	3452,79
531,78	3271,33
531,88	2980,94
531,98	2688,29
532,07	2333,27
532,17	2115,88
532,27	1897,13
532,37	1638,15
532,46	1549,11
532,56	1490,81
532,66	1414,65
532,75	1436,35
532,85	1452,84
532,95	1442,90
533,04	1438,38
533,14	1451,49
533,24	1453,07
533,34	1418,49
533,43	1491,49
533,53	1384,14
533,63	1465,72
533,72	1433,41
533,82	1394,09
533,92	1418,72
534,01	1582,56
534,11	1604,25
534,21	1460,07
534,30	1415,10
534,40	1432,28
534,50	1397,93
534,59	1431,60
534,69	1416,69
534,79	1444,03
534,88	1489,68
534,98	1453,52
535,08	1377,82
535,17	1456,91
535,27	1413,75
535,36	1424,14
535,46	1451,04
535,56	1406,52
535,65	1472,50
535,75	1477,70
535,85	1440,87
535,94	1419,85
536,04	1434,31
536,14	1486,51
536,23	1515,44
536,33	1427,31
536,42	1447,42
536,52	1441,54
536,62	1421,43
536,71	1461,66
536,81	1447,19
536,90	1452,62
537,00	1480,19
537,10	1444,71
537,19	1485,61
537,29	1529,45
537,38	1595,66
537,48	1560,64
537,58	1642,22
537,67	1639,73
537,77	1689,22
537,86	1722,44
537,96	1886,50
538,06	1938,93
538,15	2103,90
538,25	2403,10
538,34	2577,11
538,44	2645,13
538,53	2692,13
538,63	2753,60
538,73	2771,00
538,82	2700,27
538,92	2671,57
539,01	2783,66
539,11	2634,06
539,20	2799,25
539,30	2761,74
539,39	2782,98
539,49	2907,04
539,59	3017,32
539,68	3207,83
539,78	3314,94
539,87	3317,88
539,97	3446,24
540,06	3481,72
540,16	3515,39
540,25	3640,58
540,35	3754,03
540,44	3789,28
540,54	3930,97
540,63	3890,07
540,73	3976,62
540,82	4003,96
540,92	4055,03
541,01	4169,83
541,11	4224,97
541,20	4162,60
541,30	4186,78
541,39	4232,66
541,49	4236,50
541,58	4295,03
541,68	4358,08
541,77	4298,87
541,87	4279,21
541,96	4329,15
542,06	4480,33
542,15	4556,26
542,25	4825,64
542,34	4723,72
542,44	4735,69
542,53	4832,42
542,63	4906,09
542,72	4932,07
542,82	4975,01
542,91	5165,06
543,01	5186,30
543,10	5422,46
543,20	5616,35
543,29	5881,20
543,38	6216,56
543,48	6715,76
543,57	7426,47
543,67	8249,73
543,76	9244,28
543,86	10364,93
543,95	11378,68
544,05	12163,97
544,14	12557,18
544,23	12549,05
544,33	12196,06
544,42	11816,19
544,52	11907,26
544,61	12854,58
544,71	15500,38
544,80	20439,01
544,89	27058,95
544,99	33956,40
545,08	40121,66
545,18	44235,22
545,27	45974,16
545,36	45592,25
545,46	42221,04
545,55	37068,63
545,65	30132,99
545,74	23341,53
545,84	17224,41
545,93	12636,28
546,02	9562,46
546,12	7753,92
546,21	6668,30
546,30	6109,22
546,40	5733,18
546,49	5487,99
546,59	5408,45
546,68	5267,43
546,77	5235,12
546,87	5143,37
546,96	5134,33
547,05	5043,71
547,15	5033,99
547,24	4993,99
547,34	4964,62
547,43	4966,20
547,52	5024,73
547,62	4932,07
547,71	4961,00
547,80	4924,16
547,90	4862,02
547,99	4956,93
548,08	4824,05
548,18	4717,16
548,27	4708,35
548,36	4721,23
548,46	4663,61
548,55	4686,20
548,64	4700,22
548,74	4643,49
548,83	4700,44
548,92	4845,52
549,02	4677,62
549,11	4844,17
549,20	4728,92
549,30	4721,68
549,39	4748,35
549,48	4784,51
549,58	4709,48
549,67	4891,62
549,76	4816,37
549,85	4772,53
549,95	4810,95
550,04	4854,56
550,13	4764,85
550,23	4834,45
550,32	4753,55
550,41	4785,41
550,50	4809,37
550,60	4895,24
550,69	4812,30
550,78	4741,80
550,88	4818,86
550,97	4792,64
551,06	4739,99
551,15	4755,81
551,25	4860,21
551,34	4775,92
551,43	4791,29
551,52	4815,69
551,62	4856,82
551,71	4876,71
551,80	4880,55
551,89	4854,79
551,99	4837,61
552,08	4870,38
552,17	4882,13
552,26	4887,78
552,36	4822,70
552,45	4872,64
552,54	4848,91
552,63	4909,48
552,73	5044,61
552,82	5005,97
552,91	4919,42
553,00	5028,34
553,10	4888,23
553,19	4981,11
553,28	4911,28
553,37	4932,07
553,46	4768,91
553,56	4930,27
553,65	4838,97
553,74	4849,14
553,83	4896,82
553,92	4888,23
554,02	4887,10
554,11	4878,74
554,20	4854,79
554,29	5013,65
554,38	4900,66
554,48	4890,04
554,57	4911,28
554,66	4968,68
554,75	4998,51
554,84	5030,38
554,94	5074,89
555,03	5039,64
555,12	5065,40
555,21	5163,71
555,30	5356,24
555,39	5254,33
555,49	5366,41
555,58	5444,60
555,67	5489,12
555,76	5579,74
555,85	5520,08
555,94	5537,03
556,03	5537,71
556,13	5532,74
556,22	5515,79
556,31	5530,70
556,40	5452,96
556,49	5644,15
556,58	5601,21
556,67	5618,61
556,77	5740,87
556,86	5852,73
556,95	5873,52
557,04	6029,22
557,13	6054,53
557,22	6145,60
557,31	6071,48
557,40	6124,58
557,50	6156,45
557,59	6029,90
557,68	5974,98
557,77	5965,94
557,86	5887,08
557,95	5765,72
558,04	5670,59
558,13	5546,52
558,22	5535,67
558,31	5493,87
558,41	5397,37
558,50	5472,85
558,59	5473,53
558,68	5440,08
558,77	5455,90
558,86	5312,63
558,95	5333,42
559,04	5409,58
559,13	5447,31
559,22	5396,69
559,31	5411,61
559,40	5365,51
559,49	5427,20
559,59	5427,65
559,68	5367,77
559,77	5490,70
559,86	5466,30
559,95	5351,05
560,04	5330,71
560,13	5406,19
560,22	5437,15
560,31	5316,92
560,40	5321,22
560,49	5284,15
560,58	5307,88
560,67	5326,87
560,76	5301,56
560,85	5285,74
560,94	5387,20
561,03	5317,83
561,12	5521,89
561,21	5504,94
561,30	5341,55
561,39	5309,24
561,48	5337,26
561,57	5245,29
561,66	5368,67
561,75	5388,56
561,84	5279,64
561,93	5295,68
562,02	5309,24
562,11	5273,76
562,20	5269,01
562,29	5306,53
562,38	5232,63
562,47	5379,75
562,56	5344,27
562,65	5305,40
562,74	5319,86
562,83	5584,26
562,92	5447,31
563,01	5519,85
563,10	5390,37
563,19	5405,51
563,28	5604,15
563,37	5478,05
563,46	5453,19
563,55	5448,22
563,64	5629,23
563,73	5402,80
563,82	5476,69
563,91	5554,66
564,00	5510,82
564,09	5450,93
564,18	5483,92
564,27	5457,03
564,35	5513,30
564,44	5430,82
564,53	5523,24
564,62	5498,61
564,71	5510,59
564,80	5469,46
564,89	5476,69
564,98	5560,08
565,07	5466,07
565,16	5444,15
565,25	5788,77
565,34	5488,90
565,43	5515,34
565,51	5429,69
565,60	5617,48
565,69	5519,40
565,78	5618,16
565,87	5482,57
565,96	5474,21
566,05	5605,28
566,14	5645,50
566,23	5557,14
566,32	5658,61
566,40	5651,60
566,49	5676,91
566,58	5574,09
566,67	5617,25
566,76	5545,16
566,85	5565,50
566,94	5571,15
567,03	5626,97
567,11	5570,93
567,20	5589,68
567,29	5672,62
567,38	5598,50
567,47	5554,66
567,56	5572,96
567,65	5591,94
567,73	5531,83
567,82	5538,84
567,91	5604,15
568,00	5573,86
568,09	5643,69
568,18	5554,88
568,27	5611,38
568,35	5607,76
568,44	5703,80
568,53	5611,60
568,62	5573,86
568,71	5559,85
568,80	5641,89
568,88	5746,97
568,97	5763,69
569,06	5642,79
569,15	5694,31
569,24	5691,15
569,32	5724,82
569,41	5655,22
569,50	5621,55
569,59	5602,11
569,68	5600,76
569,76	5706,06
569,85	5708,78
569,94	5705,61
570,03	5613,64
570,12	5673,07
570,20	5667,87
570,29	5713,97
570,38	5673,52
570,47	5689,34
570,56	5692,51
570,64	5656,35
570,73	5644,82
570,82	5769,11
570,91	5773,18
570,99	5658,38
571,08	5635,56
571,17	5648,44
571,26	5769,34
571,34	5717,14
571,43	5752,62
571,52	5785,61
571,61	5673,30
571,69	5682,79
571,78	5817,70
571,87	5833,52
571,96	5820,41
572,04	5830,58
572,13	5835,78
572,22	5796,23
572,31	5775,22
572,39	5754,20
572,48	5787,19
572,57	5760,75
572,66	5772,96
572,74	5756,91
572,83	5802,11
572,92	5758,94
573,00	5720,98
573,09	5784,93
573,18	5822,45
573,27	5796,46
573,35	5762,33
573,44	5746,06
573,53	5833,29
573,61	5739,28
573,70	5842,56
573,79	5763,69
573,87	5932,27
573,96	5794,42
574,05	5819,96
574,14	5828,77
574,22	5863,12
574,31	5859,05
574,40	5832,39
574,48	5862,90
574,57	5879,62
574,66	5846,85
574,74	5808,89
574,83	5907,19
574,92	5960,97
575,00	5854,31
575,09	5962,10
575,18	5916,23
575,26	6019,73
575,35	5836,46
575,43	5829,68
575,52	5942,67
575,61	5875,33
575,69	5972,72
575,78	5853,63
575,87	5967,07
575,95	5879,17
576,04	5844,82
576,13	5893,18
576,21	5844,82
576,30	5963,01
576,38	5829,45
576,47	5864,03
576,56	5826,97
576,64	5833,97
576,73	5885,95
576,82	5966,85
576,90	5917,81
576,99	5941,31
577,07	5857,70
577,16	5870,58
577,25	5932,95
577,33	6050,91
577,42	5943,12
577,50	5901,77
577,59	5988,77
577,68	5998,94
577,76	5954,65
577,85	5934,31
577,93	5914,65
578,02	5879,39
578,10	5883,91
578,19	5942,67
578,28	5907,87
578,36	5928,66
578,45	5922,10
578,53	5848,66
578,62	5912,39
578,70	5876,68
578,79	5894,08
578,88	5890,47
578,96	5846,17
579,05	5850,02
579,13	6004,14
579,22	5876,46
579,30	5898,38
579,39	5898,15
579,47	5984,25
579,56	5838,26
579,64	6111,48
579,73	5892,50
579,82	5887,08
579,90	5889,11
579,99	5937,02
580,07	5889,56
580,16	5947,19
580,24	5987,41
580,33	5861,99
580,41	5939,50
580,50	5925,95
580,58	5917,58
580,67	6005,27
580,75	5928,66
580,84	5941,54
580,92	5931,37
581,01	6047,07
581,09	5913,97
581,18	5981,54
581,26	5897,25
581,35	5878,04
581,43	5990,35
581,52	6018,37
581,60	5991,71
581,69	5954,65
581,77	5985,61
581,86	5936,12
581,94	5951,71
582,02	5936,34
582,11	5883,46
582,19	6014,98
582,28	6078,71
582,36	6093,17
582,45	6047,30
582,53	5906,29
582,62	5907,87
582,70	5875,78
582,79	5921,88
582,87	5881,88
582,96	5985,83
583,04	5999,16
583,12	5927,75
583,21	5966,17
583,29	5939,96
583,38	5981,76
583,46	5942,44
583,55	5983,80
583,63	5925,72
583,71	5996,68
583,80	5984,70
583,88	5855,21
583,97	6132,04
584,05	6040,75
584,13	6071,48
584,22	6082,55
584,30	5947,64
584,39	6052,04
584,47	6047,07
584,55	5995,10
584,64	5988,77
584,72	6024,25
584,81	5949,90
584,89	5941,76
584,97	5950,13
585,06	5926,40
585,14	5965,94
585,23	5981,54
585,31	5940,86
585,39	5963,68
585,48	6075,32
585,56	5944,02
585,64	5996,68
585,73	6007,98
585,81	5932,95
585,90	6013,18
585,98	5973,85
586,06	6013,63
586,15	6093,17
586,23	5919,62
586,31	5969,79
586,40	5905,16
586,48	6054,76
586,56	5938,37
586,65	5920,97
586,73	5965,04
586,81	5992,61
586,90	5951,93
586,98	5920,52
587,06	5883,46
587,15	5944,25
587,23	5918,49
587,31	5944,25
587,40	5900,41
587,48	5946,96
587,56	5995,32
587,65	6043,46
587,73	5984,48
587,81	5915,78
587,90	6016,79
587,98	5906,06
588,06	5896,57
588,14	5834,87
588,23	5846,85
588,31	5972,95
588,39	5939,73
588,48	5907,19
588,56	5880,30
588,64	5860,86
588,72	5978,83
588,81	5876,46
588,89	5888,88
588,97	5897,02
589,06	5964,59
589,14	5952,39
589,22	5946,96
589,30	5886,62
589,39	5852,73
589,47	5926,62
589,55	6028,09
589,63	5971,59
589,72	5921,43
589,80	5881,20
589,88	5953,06
589,96	6010,92
590,05	5979,28
590,13	5959,62
590,21	5961,65
590,29	5966,85
590,38	5959,62
590,46	5965,94
590,54	5828,32
590,62	5895,89
590,71	5946,51
590,79	5914,19
590,87	5825,38
590,95	5800,07
591,03	5902,67
591,12	5904,70
591,20	5870,13
591,28	5965,72
591,36	5855,21
591,44	5776,57
591,53	5830,81
591,61	5844,37
591,69	5782,67
591,77	5845,04
591,85	5802,33
591,94	5779,28
592,02	5760,30
592,10	5870,35
592,18	5892,73
592,26	5818,15
592,34	5829,00
592,43	5759,40
592,51	5785,61
592,59	5811,82
592,67	5827,87
592,75	5818,38
592,84	5789,23
592,92	5887,75
593,00	5813,18
593,08	5799,85
593,16	5840,07
593,24	5794,20
593,32	5887,08
593,41	5857,70
593,49	5730,92
593,57	5756,68
593,65	5753,30
593,73	5740,87
593,81	5735,89
593,89	5800,30
593,98	5785,84
594,06	5818,83
594,14	5771,60
594,22	5767,98
594,30	5775,89
594,38	5757,14
594,46	5903,80
594,54	5849,11
594,62	5847,08
594,71	5824,48
594,79	5733,18
594,87	5777,93
594,95	5750,58
595,03	5838,94
595,11	5776,12
595,19	5856,57
595,27	5780,41
595,35	5729,34
595,43	5765,50
595,52	5729,34
595,60	5715,78
595,68	5794,20
595,76	5708,10
595,84	5768,66
595,92	5692,96
596,00	5796,46
596,08	5786,74
596,16	5732,73
596,24	5717,14
596,32	5743,58
596,40	5805,72
596,48	5794,42
596,56	5859,51
596,64	5721,66
596,73	5783,58
596,81	5706,97
596,89	5745,84
596,97	5701,77
597,05	5923,46
597,13	5755,55
597,21	5688,66
597,29	5703,35
597,37	5790,58
597,45	5741,09
597,53	5740,64
597,61	5694,77
597,69	5758,49
597,77	5711,94
597,85	5650,47
597,93	5663,81
598,01	5702,00
598,09	5722,11
598,17	5726,40
598,25	5675,33
598,33	5631,49
598,41	5675,56
598,49	5617,93
598,57	5638,72
598,65	5609,57
598,73	5697,93
598,81	5709,23
598,89	5668,10
598,97	5597,59
599,05	5760,75
599,13	5639,85
599,21	5653,86
599,29	5666,74
599,37	5645,95
599,45	5603,02
599,53	5711,04
599,61	5599,63
599,69	5652,28
599,77	5623,58
599,85	5622,23
599,93	5608,44
600,00	5595,79
600,08	5667,20
600,16	5580,42
600,24	5565,73
600,32	5702,22
600,40	5672,17
600,48	5672,17
600,56	5646,18
600,64	5659,96
600,72	5599,63
600,80	5595,11
600,88	5570,25
600,96	5682,34
601,04	5521,66
601,12	5558,95
601,19	5503,81
601,27	5573,41
601,35	5582,00
601,43	5560,53
601,51	5610,47
601,59	5546,52
601,67	5562,57
601,75	5535,22
601,83	5540,42
601,91	5447,31
601,98	5533,87
602,06	5595,79
602,14	5584,03
602,22	5552,85
602,30	5565,50
602,38	5533,64
602,46	5457,03
602,54	5594,43
602,61	5541,78
602,69	5510,36
602,77	5456,58
602,85	5486,86
602,93	5492,28
603,01	5477,14
603,09	5560,98
603,17	5449,57
603,24	5531,15
603,32	5438,28
603,40	5466,75
603,48	5524,37
603,56	5448,22
603,64	5419,97
603,71	5423,13
603,79	5468,10
603,87	5441,66
603,95	5560,08
604,03	5369,80
604,11	5469,91
604,18	5443,47
604,26	5329,80
604,34	5379,75
604,42	5400,99
604,50	5393,98
604,57	5406,19
604,65	5381,78
604,73	5392,17
604,81	5391,95
604,89	5288,67
604,96	5362,57
605,04	5400,31
605,12	5410,25
605,20	5432,85
605,28	5466,75
605,35	5376,58
605,43	5375,90
605,51	5355,79
605,59	5404,83
605,67	5490,25
605,74	5325,06
605,82	5339,29
605,90	5308,11
605,98	5378,84
606,05	5330,03
606,13	5353,76
606,21	5353,31
606,29	5283,48
606,36	5293,65
606,44	5309,92
606,52	5339,29
606,60	5319,63
606,67	5239,64
606,75	5231,95
606,83	5252,52
606,91	5326,19
606,98	5263,82
607,06	5304,27
607,14	5267,21
607,22	5253,20
607,29	5184,95
607,37	5234,44
607,45	5290,03
607,52	5274,66
607,60	5302,91
607,68	5239,64
607,76	5251,39
607,83	5177,94
607,91	5320,31
607,99	5254,78
608,06	5215,68
608,14	5220,43
608,22	5232,18
608,30	5288,00
608,37	5198,73
608,45	5145,63
608,53	5227,89
608,60	5207,77
608,68	5130,71
608,76	5154,89
608,83	5204,83
608,91	5117,83
608,99	5186,08
609,06	5158,96
609,14	5170,94
609,22	5138,85
609,29	5159,41
609,37	5111,96
609,45	5188,56
609,52	5081,90
609,60	5112,86
609,68	5072,63
609,75	5111,73
609,83	5080,09
609,91	5222,24
609,98	5050,04
610,06	5106,98
610,13	5092,97
610,21	5067,44
610,29	5050,04
610,36	5004,84
610,44	5022,01
610,52	5041,68
610,59	5014,33
610,67	4997,38
610,74	5017,27
610,82	5035,80
610,90	5029,25
610,97	4987,89
611,05	5010,72
611,13	5043,94
611,20	5095,46
611,28	4919,42
611,35	5022,24
611,43	4942,92
611,51	5000,32
611,58	4976,82
611,66	5044,16
611,73	4885,30
611,81	4986,99
611,88	4934,56
611,96	4969,81
612,04	4863,37
612,11	4883,26
612,19	4964,39
612,26	4880,78
612,34	4858,63
612,41	4889,36
612,49	4851,40
612,57	4792,87
612,64	4797,16
612,72	4898,18
612,79	4901,57
612,87	4766,20
612,94	4759,42
613,02	4877,16
613,09	4839,87
613,17	4818,18
613,24	4765,52
613,32	4824,96
613,40	4803,49
613,47	4746,54
613,55	4659,54
613,62	4812,08
613,70	4789,93
613,77	4681,23
613,85	4785,18
613,92	4686,20
614,00	4652,99
614,07	4657,50
614,15	4606,66
614,22	4643,72
614,30	4627,90
614,37	4580,22
614,45	4603,95
614,52	4577,73
614,60	4592,87
614,67	4643,04
614,75	4493,89
614,82	4556,94
614,90	4548,13
614,97	4501,58
615,05	4637,84
615,12	4543,16
615,20	4475,14
615,27	4422,71
615,34	4474,01
615,42	4406,44
615,49	4436,27
615,57	4397,85
615,64	4377,96
615,72	4406,66
615,79	4357,85
615,87	4347,46
615,94	4451,41
616,02	4332,09
616,09	4408,02
616,16	4328,70
616,24	4316,50
616,31	4294,35
616,39	4350,62
616,46	4313,56
616,54	4262,94
616,61	4351,98
616,68	4213,22
616,76	4252,77
616,83	4244,63
616,91	4158,99
616,98	4173,68
617,06	4242,83
617,13	4137,07
617,20	4127,58
617,28	4126,22
617,35	4094,58
617,43	4130,06
617,50	4070,63
617,57	4086,90
>>>>>End Processed Spectral Data<<<<<
