SpectraSuite Datei
++++++++++++++++++++++++++++++++++++
Datum: Sun Jan 04 06:20:30 CET 2004
Benutzer: H. Stützler
Dark-Spektrum vorhanden: Nein
Referenz-Spektrum vorhanden: Nein
Zahl der probierten Teilspektren: 1
Spektrometer: USB2+H04734
Integrationszeit (usec): 1000000 (USB2+H04734)
Spektren Durchschnitt berechnet: 10 (USB2+H04734)
Boxcar Glättung: 0 (USB2+H04734)
Dunkelstromkorrektur: Nein (USB2+H04734)
Puls/Lampe aktiviert: Nein (USB2+H04734)
Correct for Detector Non-linearity: Nein (USB2+H04734)
Streulichtkorrektur: Nein (USB2+H04734)
Anzahl Pixel in verarbeitetem Spektrum: 2048
>>>>>Begin Processed Spectral Data<<<<<
418,45	1209,69
418,57	1209,69
418,69	1209,69
418,80	1149,35
418,92	1140,99
419,04	1356,35
419,16	1204,94
419,28	1218,27
419,40	1185,05
419,52	1207,20
419,64	1189,57
419,75	1178,27
419,87	1204,94
419,99	1192,96
420,11	1195,45
420,23	1237,03
420,35	1272,28
420,47	1246,07
420,58	1240,87
420,70	1290,59
420,82	1273,19
420,94	1301,89
421,06	1374,88
421,18	1324,48
421,29	1335,56
421,41	1316,35
421,53	1354,31
421,65	1401,09
421,77	1414,88
421,89	1340,08
422,00	1455,10
422,12	1398,61
422,24	1393,64
422,36	1466,18
422,48	1451,04
422,59	1419,62
422,71	1446,06
422,83	1377,82
422,95	1379,85
423,07	1454,88
423,18	1493,52
423,30	1474,54
423,42	1402,22
423,54	1413,75
423,66	1409,45
423,77	1443,35
423,89	1403,13
424,01	1404,48
424,13	1368,78
424,25	1403,58
424,36	1420,75
424,48	1411,26
424,60	1397,93
424,72	1465,50
424,84	1398,38
424,95	1449,91
425,07	1438,83
425,19	1414,65
425,31	1423,69
425,42	1375,33
425,54	1428,89
425,66	1428,21
425,78	1406,97
425,89	1419,85
426,01	1382,56
426,13	1405,16
426,25	1429,34
426,36	1394,31
426,48	1442,45
426,60	1453,52
426,72	1389,34
426,83	1434,76
426,95	1420,53
427,07	1408,10
427,19	1512,95
427,30	1421,88
427,42	1369,68
427,54	1377,82
427,66	1409,68
427,77	1365,16
427,89	1406,97
428,01	1437,48
428,12	1432,73
428,24	1372,39
428,36	1384,60
428,48	1351,15
428,59	1370,59
428,71	1409,91
428,83	1379,40
428,94	1364,48
429,06	1364,94
429,18	1435,44
429,30	1404,48
429,41	1383,24
429,53	1453,52
429,65	1433,86
429,76	1438,61
429,88	1379,17
430,00	1429,79
430,11	1452,62
430,23	1387,31
430,35	1487,64
430,47	1389,57
430,58	1377,36
430,70	1470,47
430,82	1440,64
430,93	1560,18
431,05	1415,78
431,17	1391,60
431,28	1457,14
431,40	1396,80
431,52	1511,15
431,63	1368,33
431,75	1373,75
431,87	1400,42
431,98	1438,83
432,10	1428,21
432,22	1413,52
432,33	1447,87
432,45	1417,14
432,56	1420,75
432,68	1447,87
432,80	1396,57
432,91	1440,41
433,03	1420,75
433,15	1461,88
433,26	1434,54
433,38	1412,17
433,50	1361,09
433,61	1430,02
433,73	1474,76
433,84	1418,04
433,96	1377,82
434,08	1427,53
434,19	1385,73
434,31	1411,26
434,43	1425,50
434,54	1385,95
434,66	1387,31
434,77	1364,48
434,89	1437,25
435,01	1429,11
435,12	1376,46
435,24	1405,61
435,35	1381,43
435,47	1500,07
435,59	1406,52
435,70	1394,99
435,82	1406,74
435,93	1454,43
436,05	1413,97
436,17	1403,80
436,28	1434,09
436,40	1435,67
436,51	1376,46
436,63	1391,60
436,74	1442,22
436,86	1481,32
436,98	1651,71
437,09	1387,99
437,21	1449,45
437,32	1368,55
437,44	1443,58
437,55	1402,22
437,67	1775,55
437,79	1552,73
437,90	1437,70
438,02	1377,82
438,13	2239,49
438,25	1498,04
438,36	1431,37
438,48	1422,11
438,59	1487,64
438,71	1421,66
438,83	1402,90
438,94	1381,21
439,06	1478,61
439,17	1437,93
439,29	1397,25
439,40	1408,32
439,52	1435,22
439,63	1430,92
439,75	1370,59
439,86	1378,72
439,98	1421,21
440,09	1460,30
440,21	1408,78
440,32	1399,29
440,44	1372,17
440,55	1421,66
440,67	1416,01
440,78	1464,14
440,90	1371,94
441,01	1415,78
441,13	1384,14
441,24	1421,66
441,36	1491,03
441,47	1406,97
441,59	1442,90
441,70	1412,17
441,82	1451,49
441,93	1428,89
442,05	1359,96
442,16	1394,77
442,28	1385,73
442,39	1401,32
442,51	1439,28
442,62	1397,03
442,74	1438,61
442,85	1400,87
442,97	1501,66
443,08	1433,86
443,20	1446,52
443,31	1427,53
443,43	1402,22
443,54	1432,73
443,66	1377,14
443,77	1370,13
443,88	1382,34
444,00	1406,29
444,11	1461,43
444,23	1484,71
444,34	1367,65
444,46	1380,08
444,57	1479,28
444,69	1447,65
444,80	1434,99
444,91	1526,97
445,03	1376,91
445,14	1445,16
445,26	1380,53
445,37	1377,59
445,49	1424,60
445,60	1471,37
445,71	1486,97
445,83	1417,14
445,94	1369,46
446,06	1469,11
446,17	1376,69
446,29	1375,33
446,40	1399,06
446,51	1465,95
446,63	1418,95
446,74	1381,21
446,86	1389,12
446,97	1460,75
447,08	1386,18
447,20	1390,47
447,31	1391,38
447,43	1407,42
447,54	1404,71
447,65	1446,29
447,77	1398,83
447,88	1416,46
448,00	1421,66
448,11	1360,87
448,22	1402,00
448,34	1404,93
448,45	1362,00
448,56	1402,00
448,68	1435,44
448,79	1496,01
448,90	1449,23
449,02	1399,96
449,13	1399,74
449,25	1432,50
449,36	1407,87
449,47	1416,01
449,59	1485,38
449,70	1417,59
449,81	1393,64
449,93	1392,05
450,04	1416,23
450,15	1400,19
450,27	1419,85
450,38	1435,89
450,49	1397,70
450,61	1493,52
450,72	1408,32
450,83	1466,40
450,95	1407,19
451,06	1449,45
451,17	1486,97
451,29	1453,97
451,40	1388,66
451,51	1368,10
451,63	1382,79
451,74	1474,09
451,85	1411,49
451,97	1455,33
452,08	1402,00
452,19	1383,47
452,31	1464,14
452,42	1408,32
452,53	1486,74
452,65	1447,87
452,76	1394,77
452,87	1376,24
452,98	1366,07
453,10	1407,87
453,21	1389,12
453,32	1398,61
453,44	1387,99
453,55	1364,71
453,66	1554,54
453,77	1436,80
453,89	1439,51
454,00	1502,56
454,11	1414,88
454,23	1413,30
454,34	1431,60
454,45	1389,57
454,56	1432,28
454,68	1504,37
454,79	1418,49
454,90	1420,75
455,01	1383,24
455,13	1393,41
455,24	1498,49
455,35	1401,55
455,46	1360,64
455,58	1385,73
455,69	1456,91
455,80	1433,86
455,91	1384,14
456,03	1412,39
456,14	1452,17
456,25	1413,97
456,36	1382,34
456,48	1431,37
456,59	1467,98
456,70	1402,45
456,81	1460,53
456,92	1494,42
457,04	1460,07
457,15	1535,55
457,26	1369,91
457,37	1426,18
457,49	1389,34
457,60	1395,90
457,71	1421,66
457,82	1453,97
457,93	1435,89
458,05	1474,31
458,16	1396,12
458,27	1408,55
458,38	1437,70
458,49	1452,84
458,61	1396,12
458,72	1437,70
458,83	1407,19
458,94	1465,95
459,05	1439,28
459,17	1651,48
459,28	1437,70
459,39	1428,21
459,50	1372,85
459,61	1451,04
459,72	1388,89
459,84	1388,89
459,95	1409,68
460,06	1644,70
460,17	1406,06
460,28	1406,97
460,39	1411,49
460,51	1420,98
460,62	1404,03
460,73	1408,55
460,84	1367,65
460,95	1484,71
461,06	1517,47
461,18	1480,64
461,29	1469,11
461,40	1437,48
461,51	1432,28
461,62	1562,44
461,73	1419,17
461,84	1456,46
461,96	1431,37
462,07	1475,22
462,18	1390,02
462,29	1416,01
462,40	1455,55
462,51	1404,26
462,62	1490,36
462,73	1497,14
462,85	1451,26
462,96	1449,00
463,07	1462,33
463,18	1550,92
463,29	1459,17
463,40	1404,93
463,51	1388,21
463,62	1397,25
463,73	1463,24
463,85	1392,96
463,96	1406,74
464,07	1426,86
464,18	1396,57
464,29	1386,63
464,40	1503,92
464,51	1428,66
464,62	1409,23
464,73	1365,61
464,84	1463,01
464,95	1414,43
465,06	1409,23
465,18	1346,18
465,29	1439,51
465,40	1420,08
465,51	1434,54
465,62	1464,14
465,73	1431,60
465,84	1442,67
465,95	1440,41
466,06	1393,64
466,17	1410,36
466,28	1424,60
466,39	1479,28
466,50	1374,20
466,61	1364,71
466,72	1413,30
466,83	1354,99
466,95	1390,25
467,06	1397,48
467,17	1411,04
467,28	1386,40
467,39	1411,94
467,50	1453,07
467,61	1357,48
467,72	1378,49
467,83	1405,84
467,94	1435,67
468,05	1382,79
468,16	1422,11
468,27	1427,53
468,38	1402,90
468,49	1477,48
468,60	1407,19
468,71	1459,40
468,82	1462,56
468,93	1446,74
469,04	1496,46
469,15	1421,21
469,26	1403,13
469,37	1425,73
469,48	1482,45
469,59	1400,64
469,70	1394,54
469,81	1423,24
469,92	1371,94
470,03	1440,64
470,14	1393,86
470,25	1480,64
470,36	1424,14
470,47	1380,98
470,58	1398,16
470,69	1453,07
470,80	1467,31
470,91	1375,11
471,02	1409,91
471,13	1434,09
471,24	1449,68
471,35	1400,64
471,46	1511,60
471,56	1449,68
471,67	1489,00
471,78	1503,69
471,89	1374,65
472,00	1417,59
472,11	1451,49
472,22	1481,99
472,33	1401,55
472,44	1416,46
472,55	1415,10
472,66	1430,02
472,77	1412,62
472,88	1530,13
472,99	1482,45
473,10	1385,73
473,21	1410,13
473,32	1395,22
473,42	1402,45
473,53	1392,05
473,64	1434,31
473,75	1432,73
473,86	1437,48
473,97	1460,30
474,08	1427,31
474,19	1480,87
474,30	1538,72
474,41	1447,19
474,52	1404,71
474,62	1430,47
474,73	1379,40
474,84	1523,35
474,95	1454,65
475,06	1448,32
475,17	1403,80
475,28	1371,04
475,39	1413,30
475,50	1382,56
475,60	1408,55
475,71	1390,02
475,82	1472,73
475,93	1393,18
476,04	1500,53
476,15	1417,36
476,26	1421,88
476,37	1401,55
476,47	1398,38
476,58	1394,31
476,69	1385,95
476,80	1378,49
476,91	1412,17
477,02	1446,52
477,13	1420,08
477,23	1409,91
477,34	1420,30
477,45	1431,37
477,56	1403,35
477,67	1412,39
477,78	1437,93
477,89	1440,41
477,99	1408,32
478,10	1462,11
478,21	1434,76
478,32	1414,88
478,43	1412,17
478,54	1521,99
478,64	1437,93
478,75	1440,64
478,86	1407,19
478,97	1448,78
479,08	1399,51
479,18	1403,13
479,29	1405,84
479,40	1398,38
479,51	1371,72
479,62	1411,26
479,72	1373,75
479,83	1385,50
479,94	1441,54
480,05	1430,24
480,16	1376,01
480,26	1446,06
480,37	1372,62
480,48	1443,58
480,59	1419,40
480,70	1377,82
480,80	1413,52
480,91	1389,57
481,02	1376,46
481,13	1439,28
481,24	1417,36
481,34	1391,38
481,45	1544,82
481,56	1418,04
481,67	1413,75
481,77	1404,26
481,88	1424,82
481,99	1428,89
482,10	1447,42
482,20	1741,20
482,31	1426,63
482,42	1461,66
482,53	1425,05
482,63	1489,45
482,74	1471,60
482,85	1394,54
482,96	1389,34
483,06	1362,90
483,17	1437,93
483,28	1403,80
483,39	1418,72
483,49	1470,47
483,60	1519,06
483,71	1398,38
483,81	1475,89
483,92	1451,26
484,03	1406,52
484,14	1416,69
484,24	1384,82
484,35	1422,34
484,46	1439,51
484,57	1405,16
484,67	1446,52
484,78	1431,15
484,89	1536,68
484,99	1424,60
485,10	1433,41
485,21	1453,52
485,31	1459,62
485,42	1430,02
485,53	1423,01
485,63	1420,53
485,74	1514,54
485,85	1582,33
485,96	1461,43
486,06	1415,78
486,17	1442,00
486,28	1432,73
486,38	1376,69
486,49	1442,90
486,60	1411,71
486,70	1397,25
486,81	1402,00
486,92	1402,00
487,02	1396,35
487,13	1382,34
487,24	1444,48
487,34	1403,35
487,45	1496,91
487,56	1416,23
487,66	1399,74
487,77	1433,86
487,87	1421,43
487,98	1387,31
488,09	1420,53
488,19	1357,48
488,30	1522,90
488,41	1413,52
488,51	1390,02
488,62	1406,52
488,73	1389,34
488,83	1441,09
488,94	1464,37
489,04	1500,98
489,15	1420,53
489,26	1397,03
489,36	1443,13
489,47	1416,23
489,58	1385,73
489,68	1420,30
489,79	1391,38
489,89	1411,94
490,00	1406,74
490,11	1443,80
490,21	1434,09
490,32	1393,86
490,42	1418,72
490,53	1423,92
490,64	1396,35
490,74	1419,40
490,85	1396,35
490,95	1479,51
491,06	1444,71
491,16	1398,83
491,27	1466,40
491,38	1410,58
491,48	1521,99
491,59	1501,20
491,69	1458,04
491,80	1408,10
491,90	1508,89
492,01	1405,16
492,12	1479,96
492,22	1410,81
492,33	1484,48
492,43	1412,39
492,54	1385,50
492,64	1402,45
492,75	1407,42
492,86	1441,54
492,96	1401,32
493,07	1406,29
493,17	1447,42
493,28	1460,98
493,38	1443,80
493,49	1406,74
493,59	1455,10
493,70	1440,19
493,80	1400,87
493,91	1399,29
494,01	1414,88
494,12	1400,87
494,22	1487,42
494,33	1519,96
494,43	1512,50
494,54	1522,67
494,64	1466,40
494,75	1389,12
494,86	1486,97
494,96	1407,19
495,07	1433,41
495,17	1511,15
495,28	1420,08
495,38	1402,67
495,49	1429,11
495,59	1452,17
495,69	1428,66
495,80	1500,53
495,90	1425,95
496,01	1432,50
496,11	1444,71
496,22	1424,60
496,32	1415,33
496,43	1470,24
496,53	1416,69
496,64	1410,58
496,74	1445,61
496,85	1470,02
496,95	1449,00
497,06	1412,39
497,16	1464,37
497,27	1443,35
497,37	1496,23
497,48	1409,68
497,58	1405,61
497,68	1448,32
497,79	1501,66
497,89	1441,77
498,00	1447,87
498,10	1394,54
498,21	1495,10
498,31	1436,35
498,42	1412,84
498,52	1504,37
498,62	1442,67
498,73	1452,39
498,83	1476,80
498,94	1438,61
499,04	1516,80
499,15	1426,63
499,25	1414,43
499,35	1472,73
499,46	1550,24
499,56	1564,48
499,67	1468,44
499,77	1426,18
499,87	1407,87
499,98	1444,93
500,08	1408,10
500,19	1422,34
500,29	1444,26
500,39	1480,19
500,50	1494,42
500,60	1442,67
500,71	1444,26
500,81	1444,48
500,91	1423,92
501,02	1463,24
501,12	1482,67
501,22	1422,56
501,33	1456,46
501,43	1484,71
501,54	1426,18
501,64	1427,99
501,74	1440,41
501,85	1524,48
501,95	1428,21
502,05	1452,62
502,16	1443,35
502,26	1551,60
502,37	1499,62
502,47	1465,72
502,57	1450,81
502,68	1435,44
502,78	1441,32
502,88	1501,20
502,99	1456,01
503,09	1505,27
503,19	1460,30
503,30	1434,09
503,40	1471,37
503,50	1458,94
503,61	1476,12
503,71	1493,07
503,81	1479,74
503,92	1501,43
504,02	1523,80
504,12	1661,88
504,23	1549,79
504,33	1477,25
504,43	1477,25
504,54	1524,03
504,64	1530,36
504,74	1672,50
504,84	1512,28
504,95	1485,16
505,05	1465,27
505,15	1576,91
505,26	1463,01
505,36	1474,76
505,46	1459,85
505,56	1526,51
505,67	1519,73
505,77	1522,67
505,87	1476,57
505,98	1466,18
506,08	1492,62
506,18	1520,19
506,28	1547,98
506,39	1511,82
506,49	1505,95
506,59	1512,73
506,70	1489,23
506,80	1512,73
506,90	1624,82
507,00	1494,20
507,11	1547,08
507,21	1592,05
507,31	1555,44
507,41	1533,74
507,52	1525,84
507,62	1539,39
507,72	1619,84
507,82	1611,48
507,93	1526,51
508,03	1595,66
508,13	1572,61
508,23	1552,95
508,34	1576,91
508,44	1526,06
508,54	1561,54
508,64	1569,68
508,74	1517,93
508,85	1552,50
508,95	1553,63
509,05	1544,37
509,15	1537,81
509,26	1566,96
509,36	1545,95
509,46	1597,70
509,56	1538,49
509,66	1579,62
509,77	1537,36
509,87	1569,68
509,97	1569,68
510,07	1580,30
510,17	1523,58
510,28	1719,05
510,38	1658,49
510,48	1584,14
510,58	1610,58
510,68	1603,12
510,78	1582,33
510,89	1580,98
510,99	1577,13
511,09	1638,83
511,19	1630,92
511,29	1571,71
511,39	1671,59
511,50	1662,10
511,60	1582,11
511,70	1654,65
511,80	1667,53
511,90	1658,26
512,00	1627,75
512,11	1604,48
512,21	1657,58
512,31	1601,77
512,41	1735,10
512,51	1663,23
512,61	1765,83
512,71	1644,02
512,82	1641,76
512,92	1636,34
513,02	1709,33
513,12	1661,88
513,22	1669,79
513,32	1725,83
513,42	1706,62
513,53	1761,31
513,63	1725,38
513,73	1742,33
513,83	1667,98
513,93	1747,52
514,03	1739,16
514,13	1786,17
514,23	1709,56
514,33	1730,35
514,44	1730,12
514,54	1747,07
514,64	1840,63
514,74	1743,46
514,84	1768,99
514,94	1773,51
515,04	1804,70
515,14	1774,87
515,24	1799,50
515,34	1795,43
515,44	1739,39
515,55	1745,49
515,65	1847,86
515,75	1802,66
515,85	1800,86
515,95	1874,98
516,05	1922,21
516,15	1876,56
516,25	1852,61
516,35	1853,51
516,45	1883,11
516,55	1860,74
516,65	1885,60
516,75	2027,29
516,85	1936,90
516,95	1991,59
517,05	2019,61
517,16	1961,98
517,26	2137,57
517,36	2033,84
517,46	2039,04
517,56	2175,31
517,66	2313,39
517,76	2605,13
517,86	3136,87
517,96	3947,01
518,06	4787,44
518,16	5794,20
518,26	6688,41
518,36	7308,06
518,46	7684,77
518,56	7744,88
518,66	7332,69
518,76	6604,35
518,86	5941,54
518,96	5148,34
519,06	4518,53
519,16	4124,19
519,26	3801,48
519,36	3658,89
519,46	3587,48
519,56	3574,14
519,66	3553,58
519,76	3310,65
519,86	3138,90
519,96	3015,51
520,06	2832,24
520,16	2814,84
520,26	2655,75
520,36	2479,93
520,46	2397,23
520,56	2353,61
520,66	2368,75
520,76	2328,53
520,86	2352,71
520,96	2398,58
521,06	2358,58
521,16	2290,11
521,26	2325,36
521,35	2352,25
521,45	2290,56
521,55	2313,39
521,65	2340,73
521,75	2307,51
521,85	2281,07
521,95	2314,97
522,05	2322,88
522,15	2344,57
522,25	2712,92
522,35	2441,52
522,45	2357,68
522,55	2466,15
522,65	2432,25
522,75	2378,24
522,85	2394,06
522,94	2345,93
523,04	2361,75
523,14	2295,76
523,24	2209,21
523,34	2169,89
523,44	2152,26
523,54	2102,54
523,64	2009,89
523,74	2069,32
523,84	1915,66
523,94	1879,05
524,03	1783,23
524,13	1763,57
524,23	1708,20
524,33	1623,01
524,43	1612,39
524,53	1581,65
524,63	1532,62
524,73	1495,33
524,83	1461,66
524,92	1480,19
525,02	1471,83
525,12	1515,89
525,22	1464,59
525,32	1428,89
525,42	1477,02
525,52	1451,26
525,61	1455,55
525,71	1405,61
525,81	1469,57
525,91	1396,80
526,01	1442,45
526,11	1458,27
526,21	1464,82
526,30	1463,46
526,40	1413,07
526,50	1445,16
526,60	1456,46
526,70	1461,20
526,80	1446,52
526,89	1420,75
526,99	1394,54
527,09	1435,22
527,19	1432,96
527,29	1449,23
527,39	1424,14
527,48	1460,07
527,58	1482,90
527,68	1401,32
527,78	1496,46
527,88	1552,28
527,97	1410,81
528,07	1396,57
528,17	1471,37
528,27	1479,96
528,37	1427,31
528,46	1394,09
528,56	1518,60
528,66	1449,91
528,76	1385,27
528,86	1459,40
528,95	1404,03
529,05	1449,00
529,15	1440,64
529,25	1469,57
529,35	1477,70
529,44	1465,27
529,54	1517,47
529,64	1450,58
529,74	1435,22
529,83	1400,42
529,93	1446,29
530,03	1453,97
530,13	1461,20
530,22	1509,56
530,32	1503,46
530,42	1491,71
530,52	1408,32
530,61	1506,63
530,71	1441,54
530,81	1535,55
530,91	1647,87
531,00	1941,87
531,10	2308,41
531,20	2785,01
531,30	3003,76
531,39	3249,18
531,49	3513,35
531,59	3959,67
531,69	3910,41
531,78	3691,65
531,88	3450,08
531,98	3129,18
532,07	2699,14
532,17	2351,35
532,27	2034,30
532,37	1731,03
532,46	1587,98
532,56	1500,07
532,66	1449,68
532,75	1455,33
532,85	1460,30
532,95	1438,61
533,04	1416,01
533,14	1471,37
533,24	1476,35
533,34	1440,64
533,43	1480,64
533,53	1395,22
533,63	1447,65
533,72	1421,88
533,82	1411,26
533,92	1403,35
534,01	1576,46
534,11	1613,29
534,21	1475,67
534,30	1408,78
534,40	1434,54
534,50	1424,82
534,59	1446,74
534,69	1405,16
534,79	1453,75
534,88	1525,61
534,98	1499,17
535,08	1409,91
535,17	1472,50
535,27	1449,23
535,36	1442,22
535,46	1474,54
535,56	1420,08
535,65	1494,20
535,75	1510,02
535,85	1491,71
535,94	1437,70
536,04	1461,88
536,14	1514,76
536,23	1512,05
536,33	1463,24
536,42	1448,10
536,52	1439,96
536,62	1431,60
536,71	1515,21
536,81	1479,96
536,90	1480,41
537,00	1485,38
537,10	1486,74
537,19	1513,63
537,29	1576,91
537,38	1641,76
537,48	1645,15
537,58	1678,37
537,67	1687,87
537,77	1747,52
537,86	1820,29
537,96	2004,47
538,06	2109,55
538,15	2282,88
538,25	2653,26
538,34	2876,99
538,44	3009,64
538,53	3058,68
538,63	3180,26
538,73	3196,75
538,82	3143,87
538,92	3153,36
539,01	3292,34
539,11	3166,92
539,20	3347,48
539,30	3345,22
539,39	3381,15
539,49	3567,59
539,59	3675,61
539,68	3909,05
539,78	4101,14
539,87	4123,28
539,97	4273,11
540,06	4390,17
540,16	4452,54
540,25	4628,35
540,35	4794,45
540,44	4799,87
540,54	4987,89
540,63	5013,43
540,73	5121,45
540,82	5196,02
540,92	5191,50
541,01	5362,34
541,11	5399,63
541,20	5404,38
541,30	5458,61
541,39	5471,27
541,49	5484,83
541,58	5542,91
541,68	5651,15
541,77	5625,61
541,87	5660,87
541,96	5689,34
542,06	5850,47
542,15	5923,23
542,25	6206,39
542,34	6205,71
542,44	6157,13
542,53	6323,45
542,63	6422,43
542,72	6488,19
542,82	6615,65
542,91	6711,69
543,01	6881,85
543,10	7035,30
543,20	7333,37
543,29	7676,86
543,38	8120,46
543,48	8823,27
543,57	9675,23
543,67	10754,52
543,76	12104,31
543,86	13389,03
543,95	14769,56
544,05	15587,39
544,14	16252,23
544,23	16116,41
544,33	15796,42
544,42	15596,43
544,52	15553,49
544,61	16877,30
544,71	20389,75
544,80	26376,26
544,89	34475,25
544,99	42513,23
545,08	49176,11
545,18	53261,65
545,27	54889,40
545,36	54767,60
545,46	51882,03
545,55	46916,28
545,65	39029,03
545,74	30635,80
545,84	22942,90
545,93	16881,36
546,02	12747,91
546,12	10292,38
546,21	8825,53
546,30	8093,35
546,40	7599,57
546,49	7267,15
546,59	7095,18
546,68	6983,55
546,77	6889,54
546,87	6860,84
546,96	6793,27
547,05	6732,70
547,15	6655,42
547,24	6673,95
547,34	6607,28
547,43	6589,88
547,52	6637,79
547,62	6619,94
547,71	6583,10
547,80	6551,47
547,90	6464,46
547,99	6562,77
548,08	6443,22
548,18	6319,16
548,27	6337,91
548,36	6348,08
548,46	6296,56
548,55	6255,88
548,64	6291,81
548,74	6301,30
548,83	6284,35
548,92	6391,47
549,02	6283,00
549,11	6444,12
549,20	6350,34
549,30	6297,91
549,39	6338,59
549,48	6413,84
549,58	6365,71
549,67	6487,06
549,76	6500,85
549,85	6445,71
549,95	6455,42
550,04	6539,94
550,13	6388,98
550,23	6424,92
550,32	6420,40
550,41	6403,90
550,50	6433,96
550,60	6507,40
550,69	6408,65
550,78	6380,17
550,88	6465,14
550,97	6409,77
551,06	6432,60
551,15	6380,40
551,25	6536,78
551,34	6370,00
551,43	6391,70
551,52	6429,66
551,62	6490,90
551,71	6536,10
551,80	6426,95
551,89	6489,77
551,99	6507,63
552,08	6525,03
552,17	6522,31
552,26	6612,71
552,36	6534,97
552,45	6589,43
552,54	6539,04
552,63	6626,94
552,73	6751,69
552,82	6727,28
552,91	6648,41
553,00	6763,44
553,10	6653,38
553,19	6704,68
553,28	6602,76
553,37	6657,00
553,46	6514,63
553,56	6610,22
553,65	6519,60
553,74	6511,02
553,83	6555,08
553,92	6585,82
554,02	6664,46
554,11	6590,11
554,20	6516,66
554,29	6682,08
554,38	6642,54
554,48	6636,44
554,57	6680,28
554,66	6745,59
554,75	6755,98
554,84	6853,15
554,94	6843,66
555,03	6828,75
555,12	6858,35
555,21	6963,66
555,30	7198,45
555,39	7106,03
555,49	7193,94
555,58	7346,93
555,67	7384,21
555,76	7499,92
555,85	7437,32
555,94	7467,60
556,03	7445,23
556,13	7497,43
556,22	7462,63
556,31	7501,50
556,40	7415,62
556,49	7536,98
556,58	7453,14
556,67	7536,07
556,77	7633,47
556,86	7808,38
556,95	7851,77
557,04	7997,53
557,13	8102,84
557,22	8164,08
557,31	8219,67
557,40	8208,82
557,50	8276,39
557,59	8128,37
557,68	8074,82
557,77	8034,82
557,86	7826,69
557,95	7745,56
558,04	7612,00
558,13	7544,21
558,22	7481,39
558,31	7449,52
558,41	7372,46
558,50	7358,68
558,59	7327,72
558,68	7329,52
558,77	7320,26
558,86	7205,23
558,95	7257,44
559,04	7332,69
559,13	7359,13
559,22	7292,46
559,31	7363,20
559,40	7320,71
559,49	7347,60
559,59	7322,07
559,68	7325,46
559,77	7383,08
559,86	7388,05
559,95	7280,26
560,04	7240,04
560,13	7327,49
560,22	7367,72
560,31	7201,39
560,40	7259,70
560,49	7200,26
560,58	7238,00
560,67	7254,50
560,76	7231,45
560,85	7253,59
560,94	7301,50
561,03	7260,37
561,12	7457,88
561,21	7378,11
561,30	7245,01
561,39	7251,56
561,48	7201,39
561,57	7121,39
561,66	7269,41
561,75	7282,29
561,84	7222,41
561,93	7123,20
562,02	7203,20
562,11	7137,21
562,20	7196,87
562,29	7242,52
562,38	7211,34
562,47	7314,84
562,56	7294,05
562,65	7294,27
562,74	7320,03
562,83	7556,64
562,92	7366,13
563,01	7475,51
563,10	7371,78
563,19	7369,98
563,28	7596,64
563,37	7470,31
563,46	7437,54
563,55	7380,14
563,64	7637,99
563,73	7434,15
563,82	7473,25
563,91	7515,06
564,00	7475,96
564,09	7391,67
564,18	7490,20
564,27	7486,58
564,35	7480,93
564,44	7448,39
564,53	7532,01
564,62	7431,44
564,71	7417,88
564,80	7375,63
564,89	7444,78
564,98	9001,80
565,07	7506,70
565,16	7422,18
565,25	7767,48
565,34	7458,33
565,43	7478,45
565,51	7479,80
565,60	7670,08
565,69	7518,22
565,78	7683,19
565,87	7541,72
565,96	7518,45
566,05	7683,19
566,14	7626,69
566,23	7610,87
566,32	7744,66
566,40	7702,17
566,49	7720,70
566,58	7549,18
566,67	7660,14
566,76	7610,65
566,85	7676,18
566,94	7575,62
567,03	7686,58
567,11	7596,18
567,20	7615,62
567,29	7726,80
567,38	7677,54
567,47	7585,11
567,56	7652,45
567,65	7604,77
567,73	7601,83
567,82	7571,33
567,91	7664,66
568,00	7648,16
568,09	7686,58
568,18	7620,59
568,27	7679,12
568,35	7686,13
568,44	7759,12
568,53	7705,79
568,62	7612,23
568,71	7682,51
568,80	7695,62
568,88	7812,22
568,97	7846,12
569,06	7696,07
569,15	7687,48
569,24	7750,98
569,32	7782,39
569,41	7702,17
569,50	7717,54
569,59	7681,61
569,68	7674,15
569,76	7758,21
569,85	7757,31
569,94	7826,69
570,03	7706,24
570,12	7786,69
570,20	7789,85
570,29	7822,85
570,38	7733,13
570,47	7770,87
570,56	7710,31
570,64	7824,65
570,73	7745,79
570,82	7860,36
570,91	7807,70
570,99	7768,16
571,08	7684,54
571,17	7737,65
571,26	7855,16
571,34	7788,95
571,43	7873,47
571,52	7931,77
571,61	7799,34
571,69	7813,58
571,78	7947,81
571,87	7913,24
571,96	7997,53
572,04	7969,06
572,13	7969,96
572,22	7909,40
572,31	7917,31
572,39	7925,89
572,48	7980,58
572,57	7912,11
572,66	7901,71
572,74	7906,23
572,83	7973,12
572,92	7877,31
573,00	7870,08
573,09	7969,28
573,18	7984,20
573,27	7941,71
573,35	7901,04
573,44	7899,68
573,53	7957,76
573,61	7930,19
573,70	7984,87
573,79	7924,31
573,87	8091,76
573,96	7893,13
574,05	7954,59
574,14	7955,50
574,22	7950,98
574,31	8048,15
574,40	7945,33
574,48	8001,15
574,57	8040,92
574,66	8058,32
574,74	7973,12
574,83	8136,28
574,92	8087,24
575,00	8028,26
575,09	8130,86
575,18	8052,67
575,26	8173,34
575,35	8054,03
575,43	8038,21
575,52	8182,16
575,61	8062,39
575,69	8110,30
575,78	8053,80
575,87	8140,35
575,95	8049,51
576,04	7965,89
576,13	8139,90
576,21	8025,78
576,30	8061,48
576,38	8036,17
576,47	7960,02
576,56	8023,74
576,64	7957,76
576,73	8057,64
576,82	8105,55
576,90	8061,93
576,99	8069,84
577,07	8046,34
577,16	8030,98
577,25	8118,43
577,33	8226,68
577,42	8089,05
577,50	8049,73
577,59	8170,86
577,68	8084,08
577,76	8148,71
577,85	8063,97
577,93	8088,83
578,02	8084,76
578,10	8063,06
578,19	8125,89
578,28	8106,91
578,36	8136,06
578,45	8115,04
578,53	8004,31
578,62	8035,04
578,70	8070,97
578,79	8042,27
578,88	8071,88
578,96	8020,13
579,05	7976,51
579,13	8160,69
579,22	8050,64
579,30	8058,55
579,39	8060,13
579,47	8090,41
579,56	8038,43
579,64	8336,50
579,73	8040,24
579,82	8073,23
579,90	8016,74
579,99	8084,31
580,07	8111,88
580,16	8073,01
580,24	8172,89
580,33	8053,57
580,41	8101,03
580,50	8114,81
580,58	8117,75
580,67	8154,14
580,75	8120,69
580,84	8208,82
580,92	8113,46
581,01	8296,51
581,09	8100,35
581,18	8126,57
581,26	8150,97
581,35	8125,66
581,43	8163,63
581,52	8191,20
581,60	8172,21
581,69	8151,42
581,77	8164,76
581,86	8163,40
581,94	8173,12
582,02	8175,15
582,11	8071,43
582,19	8226,22
582,28	8263,29
582,36	8237,07
582,45	8201,37
582,53	8122,95
582,62	8023,97
582,70	8060,35
582,79	8119,11
582,87	8011,54
582,96	8127,92
583,04	8227,81
583,12	8110,07
583,21	8167,92
583,29	8089,05
583,38	8176,06
583,46	8143,06
583,55	8141,93
583,63	8085,89
583,71	8176,96
583,80	8182,38
583,88	8105,10
583,97	8414,47
584,05	8222,38
584,13	8272,32
584,22	8210,41
584,30	8191,65
584,39	8236,62
584,47	8249,27
584,55	8228,94
584,64	8242,27
584,72	8210,18
584,81	8136,96
584,89	8135,15
584,97	8186,90
585,06	8186,90
585,14	8145,32
585,23	8164,53
585,31	8157,98
585,39	8162,05
585,48	8203,63
585,56	8199,78
585,64	8153,68
585,73	8244,30
585,81	8170,63
585,90	8258,54
585,98	8110,97
586,06	8201,59
586,15	8384,86
586,23	8104,42
586,31	8177,41
586,40	8141,25
586,48	8298,99
586,56	8161,59
586,65	8095,38
586,73	8109,84
586,81	8210,41
586,90	8137,19
586,98	8146,90
587,06	8121,14
587,15	8138,09
587,23	8140,58
587,31	8178,09
587,40	8080,47
587,48	8036,62
587,56	8110,52
587,65	8207,47
587,73	8115,94
587,81	8065,10
587,90	8189,39
587,98	8068,26
588,06	8056,06
588,14	7951,20
588,23	8078,21
588,31	8131,54
588,39	8038,88
588,48	8016,06
588,56	8022,84
588,64	8004,99
588,72	8034,82
588,81	8037,75
588,89	8014,48
588,97	8063,74
589,06	8133,57
589,14	8093,80
589,22	8115,27
589,30	8077,08
589,39	7997,53
589,47	8157,75
589,55	8204,08
589,63	8084,53
589,72	8087,47
589,80	8012,90
589,88	8118,43
589,96	8186,45
590,05	8124,53
590,13	8068,94
590,21	8112,33
590,29	8141,48
590,38	8087,70
590,46	8074,82
590,54	7987,81
590,62	8023,29
590,71	8066,68
590,79	8026,68
590,87	8008,38
590,95	7961,15
591,03	7976,29
591,12	8024,20
591,20	7948,27
591,28	8076,40
591,36	7964,99
591,44	7932,22
591,53	7976,51
591,61	7893,13
591,69	7903,97
591,77	7943,97
591,85	7903,52
591,94	7875,50
592,02	7842,73
592,10	7994,37
592,18	7992,56
592,26	7890,19
592,34	7872,34
592,43	7880,47
592,51	7864,43
592,59	7839,79
592,67	7931,32
592,75	7898,55
592,84	7918,21
592,92	7960,02
593,00	7880,24
593,08	7952,56
593,16	7935,84
593,24	7926,57
593,32	8043,86
593,41	7943,07
593,49	7828,27
593,57	7836,86
593,65	7792,34
593,73	7769,74
593,81	7777,42
593,89	7880,70
593,98	7876,63
594,06	7889,96
594,14	7955,72
594,22	7917,53
594,30	7899,00
594,38	7869,17
594,46	7995,50
594,54	7961,82
594,62	7905,10
594,71	7906,68
594,79	7839,34
594,87	7868,95
594,95	7850,87
595,03	7937,64
595,11	7799,34
595,19	7969,73
595,27	7777,42
595,35	7813,58
595,43	7779,68
595,52	7757,76
595,60	7775,39
595,68	7918,89
595,76	7769,51
595,84	7837,08
595,92	7775,39
596,00	7888,83
596,08	7899,45
596,16	7816,29
596,24	7836,86
596,32	7786,69
596,40	7851,77
596,48	7832,56
596,56	7821,04
596,64	7717,76
596,73	7870,75
596,81	7825,33
596,89	7728,16
596,97	7707,82
597,05	7987,36
597,13	7775,16
597,21	7711,66
597,29	7774,03
597,37	7858,55
597,45	7771,55
597,53	7755,28
597,61	7802,05
597,69	7781,72
597,77	7793,24
597,85	7660,36
597,93	7696,52
598,01	7719,35
598,09	7755,73
598,17	7730,87
598,25	7717,09
598,33	7696,07
598,41	7721,38
598,49	7591,89
598,57	7676,86
598,65	7664,21
598,73	7700,14
598,81	7744,43
598,89	7677,99
598,97	7620,82
599,05	7768,38
599,13	7664,43
599,21	7680,25
599,29	7641,61
599,37	7650,42
599,45	7599,57
599,53	7689,74
599,61	7534,27
599,69	7658,78
599,77	7626,69
599,85	7583,53
599,93	7604,32
600,00	7594,38
600,08	7654,94
600,16	7577,43
600,24	7606,81
600,32	7718,67
600,40	7681,61
600,48	7708,27
600,56	7596,86
600,64	7634,15
600,72	7594,15
600,80	7591,21
600,88	7540,82
600,96	7635,51
601,04	7487,26
601,12	7522,06
601,19	7477,09
601,27	7488,62
601,35	7517,99
601,43	7531,55
601,51	7566,35
601,59	7518,45
601,67	7560,25
601,75	7423,99
601,83	7524,10
601,91	7462,40
601,98	7483,42
602,06	7512,34
602,14	7518,45
602,22	7510,54
602,30	7508,28
602,38	7489,97
602,46	7434,15
602,54	7501,72
602,61	7479,58
602,69	7426,47
602,77	7350,77
602,85	7401,39
602,93	7374,72
603,01	7412,23
603,09	7444,55
603,17	7381,50
603,24	7437,09
603,32	7362,29
603,40	7414,49
603,48	7426,70
603,56	7349,19
603,64	7338,56
603,71	7343,08
603,79	7315,29
603,87	7392,57
603,95	7420,14
604,03	7270,09
604,11	7323,42
604,18	7285,68
604,26	7246,36
604,34	7224,67
604,42	7330,65
604,50	7233,26
604,57	7238,45
604,65	7231,22
604,73	7239,13
604,81	7252,46
604,89	7220,38
604,96	7209,08
605,04	7223,76
605,12	7223,99
605,20	7276,19
605,28	7275,29
605,35	7195,97
605,43	7219,70
605,51	7193,94
605,59	7289,07
605,67	7308,51
605,74	7141,73
605,82	7179,92
605,90	7152,13
605,98	7232,58
606,05	7168,63
606,13	7182,64
606,21	7179,92
606,29	7127,72
606,36	7167,95
606,44	7092,47
606,52	7147,83
606,60	7124,33
606,67	7102,64
606,75	7064,90
606,83	7070,10
606,91	7102,86
606,98	7061,06
607,06	7113,03
607,14	7104,67
607,22	7055,63
607,29	7033,04
607,37	7084,56
607,45	7097,89
607,52	7095,86
607,60	7056,76
607,68	7024,22
607,76	7039,14
607,83	6947,16
607,91	7002,30
607,99	7059,25
608,06	7078,46
608,14	6976,31
608,22	6998,46
608,30	7030,10
608,37	6917,11
608,45	6928,41
608,53	6982,42
608,60	6971,12
608,68	6850,89
608,76	6943,32
608,83	6974,28
608,91	6878,92
608,99	6962,75
609,06	6897,45
609,14	6926,60
609,22	6915,98
609,29	6912,81
609,37	6858,12
609,45	6950,78
609,52	6870,33
609,60	6823,10
609,68	6836,20
609,75	6873,27
609,83	6797,56
609,91	6929,99
609,98	6805,47
610,06	6807,28
610,13	6774,74
610,21	6818,80
610,29	6758,92
610,36	6754,17
610,44	6789,20
610,52	6733,83
610,59	6755,08
610,67	6720,73
610,74	6696,77
610,82	6664,68
610,90	6768,41
610,97	6692,93
611,05	6677,11
611,13	6659,49
611,20	6747,17
611,28	6634,85
611,35	6649,77
611,43	6600,50
611,51	6642,76
611,58	6608,19
611,66	6731,57
611,73	6529,77
611,81	6681,41
611,88	6599,60
611,96	6578,36
612,04	6544,46
612,11	6498,36
612,19	6625,81
612,26	6485,48
612,34	6473,95
612,41	6495,87
612,49	6475,08
612,57	6392,83
612,64	6439,38
612,72	6461,75
612,79	6560,28
612,87	6398,93
612,94	6370,00
613,02	6432,83
613,09	6413,16
613,17	6412,71
613,24	6378,36
613,32	6374,52
613,40	6328,65
613,47	6344,47
613,55	6271,02
613,62	6373,62
613,70	6340,40
613,77	6198,03
613,85	6283,45
613,92	6258,14
614,00	6175,43
614,07	6140,40
614,15	6145,60
614,22	6105,38
614,30	6161,42
614,37	6060,18
614,45	6061,54
614,52	6045,94
614,60	6071,03
614,67	6108,54
614,75	5967,53
614,82	6001,42
614,90	5975,89
614,97	5978,83
615,05	6071,70
615,12	5995,55
615,20	5926,17
615,27	5849,34
615,34	5893,40
615,42	5848,43
615,49	5877,81
615,57	5780,64
615,64	5724,14
615,72	5828,32
615,79	5753,97
615,87	5742,45
615,94	5792,62
616,02	5728,66
616,09	5722,56
616,16	5649,79
616,24	5704,71
616,31	5571,38
616,39	5715,78
616,46	5650,47
616,54	5643,47
616,61	5700,87
616,68	5514,88
616,76	5541,78
616,83	5577,71
616,91	5436,92
616,98	5430,82
617,06	5578,16
617,13	5420,20
617,20	5372,51
617,28	5412,51
617,35	5331,84
617,43	5405,73
617,50	5297,49
617,57	5260,43
>>>>>End Processed Spectral Data<<<<<
