SpectraSuite Datei
++++++++++++++++++++++++++++++++++++
Datum: Sun Jan 04 05:08:11 CET 2004
Benutzer: H. Stützler
Dark-Spektrum vorhanden: Nein
Referenz-Spektrum vorhanden: Nein
Zahl der probierten Teilspektren: 1
Spektrometer: USB2+H04734
Integrationszeit (usec): 30000000 (USB2+H04734)
Spektren Durchschnitt berechnet: 10 (USB2+H04734)
Boxcar Glättung: 0 (USB2+H04734)
Dunkelstromkorrektur: Nein (USB2+H04734)
Puls/Lampe aktiviert: Nein (USB2+H04734)
Correct for Detector Non-linearity: Nein (USB2+H04734)
Streulichtkorrektur: Nein (USB2+H04734)
Anzahl Pixel in verarbeitetem Spektrum: 2048
>>>>>Begin Processed Spectral Data<<<<<
418,45	1225,50
418,57	1225,50
418,69	1225,50
418,80	1146,18
418,92	1138,50
419,04	8265,55
419,16	3759,68
419,28	3990,63
419,40	3373,70
419,52	4010,97
419,64	3261,38
419,75	3432,23
419,87	3627,70
419,99	3100,03
420,11	3409,63
420,23	3740,01
420,35	5011,85
420,47	4149,50
420,58	3336,18
420,70	4342,94
420,82	3952,66
420,94	4899,08
421,06	6550,79
421,18	5003,26
421,29	4389,94
421,41	3587,48
421,53	4432,65
421,65	5786,51
421,77	5697,93
421,89	4335,71
422,00	6935,41
422,12	4186,56
422,24	3946,11
422,36	6224,70
422,48	5988,09
422,59	4423,84
422,71	5656,35
422,83	3521,72
422,95	3921,70
423,07	5347,88
423,18	6783,32
423,30	5801,20
423,42	3924,87
423,54	4497,51
423,66	3905,43
423,77	4775,47
423,89	4154,02
424,01	3697,30
424,13	3451,43
424,25	3705,21
424,36	4954,90
424,48	4610,95
424,60	4127,58
424,72	6534,29
424,84	4127,80
424,95	6185,15
425,07	4624,51
425,19	4611,63
425,31	4938,40
425,42	3411,21
425,54	5313,31
425,66	5008,00
425,78	3966,22
425,89	4603,27
426,01	4078,99
426,13	4317,63
426,25	5821,54
426,36	4169,38
426,48	5354,89
426,60	5460,42
426,72	4284,86
426,83	5553,98
426,95	5179,75
427,07	4393,78
427,19	7555,51
427,30	4630,16
427,42	3307,71
427,54	3616,40
427,66	4189,72
427,77	3827,24
427,89	4786,77
428,01	5117,38
428,12	5215,00
428,24	3340,03
428,36	3600,58
428,48	3319,69
428,59	3513,13
428,71	4678,30
428,83	3461,83
428,94	3957,64
429,06	3961,48
429,18	5273,31
429,30	4486,66
429,41	4046,22
429,53	5684,14
429,65	5533,87
429,76	5093,43
429,88	3903,40
430,00	4976,59
430,11	6278,48
430,23	4097,52
430,35	7044,33
430,47	3983,40
430,58	3511,55
430,70	5829,90
430,82	4928,23
430,93	9851,27
431,05	4666,77
431,17	4309,27
431,28	5865,16
431,40	3716,96
431,52	7076,20
431,63	3443,30
431,75	3416,86
431,87	4260,00
431,98	5650,92
432,10	4623,61
432,22	4217,29
432,33	6180,40
432,45	4456,15
432,56	4699,09
432,68	5516,47
432,80	4013,45
432,91	5634,43
433,03	4732,30
433,15	6367,74
433,26	4831,96
433,38	4219,32
433,50	3226,13
433,61	5875,78
433,73	6614,06
433,84	4295,03
433,96	3602,39
434,08	4392,88
434,19	4170,96
434,31	4178,65
434,43	4602,36
434,54	4359,21
434,66	3311,78
434,77	3216,19
434,89	5549,01
435,01	4763,72
435,12	3547,25
435,24	4060,46
435,35	3946,34
435,47	7261,28
435,59	4416,16
435,70	3797,19
435,82	4404,86
435,93	5967,53
436,05	4679,88
436,17	4200,57
436,28	5134,55
436,40	5015,69
436,51	3562,84
436,63	4244,86
436,74	6015,21
436,86	7045,01
436,98	11898,22
437,09	4095,26
437,21	5602,11
437,32	3607,81
437,44	5474,66
437,55	3985,21
437,67	16744,19
437,79	8355,26
437,90	5007,10
438,02	3808,49
438,13	32890,21
438,25	6263,56
438,36	5600,98
438,48	5079,41
438,59	6068,09
438,71	4789,70
438,83	3829,96
438,94	3507,48
439,06	6099,95
439,17	5800,53
439,29	3854,81
439,40	4636,71
439,52	4154,92
439,63	5152,86
439,75	3540,47
439,86	3466,58
439,98	4475,81
440,09	5683,24
440,21	4323,73
440,32	3975,71
440,44	3228,16
440,55	4453,67
440,67	4031,08
440,78	6219,95
440,90	3579,79
441,01	4008,26
441,13	3665,21
441,24	4986,54
441,36	6508,30
441,47	3774,36
441,59	5774,99
441,70	3476,97
441,82	5777,93
441,93	5063,14
442,05	3230,65
442,16	3831,54
442,28	3231,33
442,39	4363,95
442,51	5592,17
442,62	3960,57
442,74	5703,35
442,85	4293,67
442,97	7562,29
443,08	5538,16
443,20	5386,07
443,31	4937,95
443,43	3914,25
443,54	5030,15
443,66	3284,21
443,77	3752,44
443,88	3305,90
444,00	4656,37
444,11	5625,16
444,23	6471,24
444,34	3568,27
444,46	3564,20
444,57	6405,03
444,69	5951,48
444,80	5044,84
444,91	8502,60
445,03	3387,93
445,14	5751,71
445,26	3247,82
445,37	3488,72
445,49	4606,66
445,60	6255,43
445,71	5835,55
445,83	4403,95
445,94	3478,78
446,06	5890,69
446,17	3390,87
446,29	2988,40
446,40	4260,23
446,51	6031,71
446,63	4332,99
446,74	3724,65
446,86	3819,79
446,97	6214,07
447,08	3727,36
447,20	4080,12
447,31	3345,90
447,43	4375,25
447,54	4669,03
447,65	5314,66
447,77	3530,08
447,88	4277,85
448,00	4762,81
448,11	3238,33
448,22	3843,51
448,34	4777,28
448,45	3088,05
448,56	4116,50
448,68	4843,71
448,79	6287,74
448,90	5183,37
449,02	4076,05
449,13	3965,77
449,25	4961,23
449,36	3901,59
449,47	4072,44
449,59	6589,43
449,70	4519,88
449,81	3857,07
449,93	4255,48
450,04	3925,77
450,15	4069,50
450,27	4268,36
450,38	5139,75
450,49	3988,82
450,61	7014,50
450,72	4181,36
450,83	5558,27
450,95	4064,98
451,06	5059,08
451,17	7029,42
451,29	5492,96
451,40	3746,12
451,51	3236,30
451,63	3396,97
451,74	5953,52
451,85	4122,15
451,97	5700,19
452,08	4473,55
452,19	3627,48
452,31	6404,35
452,42	4421,80
452,53	6842,08
452,65	6108,77
452,76	3362,40
452,87	3475,16
452,98	3584,09
453,10	4219,32
453,21	3466,12
453,32	3877,86
453,44	3417,99
453,55	3090,31
453,66	8417,63
453,77	5106,31
453,89	5466,52
454,00	6952,81
454,11	4677,39
454,23	4460,22
454,34	4540,67
454,45	3223,42
454,56	5174,78
454,68	7506,92
454,79	4358,98
454,90	4766,43
455,01	3448,72
455,13	3193,36
455,24	6700,61
455,35	3709,73
455,46	2845,12
455,58	3122,63
455,69	6317,80
455,80	5085,52
455,91	3293,02
456,03	4253,90
456,14	5621,77
456,25	3608,04
456,36	3255,06
456,48	4083,06
456,59	6294,07
456,70	3622,05
456,81	6075,32
456,92	7269,64
457,04	5514,43
457,15	8373,79
457,26	3286,02
457,37	4115,15
457,49	3650,98
457,60	3239,24
457,71	4432,65
457,82	5238,51
457,93	4512,42
458,05	6023,12
458,16	3488,72
458,27	4073,57
458,38	4499,99
458,49	5184,72
458,61	4030,18
458,72	4658,63
458,83	4157,86
458,94	5225,85
459,05	5038,29
459,17	12105,22
459,28	3831,54
459,39	4280,57
459,50	3208,96
459,61	5752,39
459,72	3316,07
459,84	3399,68
459,95	4342,71
460,06	11514,27
460,17	3639,90
460,28	4137,29
460,39	4279,89
460,51	4925,07
460,62	4222,49
460,73	4141,13
460,84	2869,53
460,95	6564,12
461,06	7009,31
461,18	6392,37
461,29	6179,27
461,40	4470,16
461,51	4942,92
461,62	8764,74
461,73	4258,19
461,84	5165,97
461,96	5046,87
462,07	5502,00
462,18	3799,00
462,29	4293,90
462,40	5796,91
462,51	4154,24
462,62	6545,36
462,73	6789,20
462,85	5396,24
462,96	5280,09
463,07	5821,54
463,18	8257,18
463,29	5350,37
463,40	3927,13
463,51	3338,67
463,62	3459,12
463,73	5581,10
463,85	3533,47
463,96	4547,68
464,07	4425,65
464,18	4207,35
464,29	3357,88
464,40	6800,95
464,51	4568,69
464,62	4130,51
464,73	3281,72
464,84	5289,35
464,95	4179,55
465,06	4254,58
465,18	3017,55
465,29	4694,34
465,40	3891,42
465,51	4275,82
465,62	5444,38
465,73	4179,55
465,84	4790,61
465,95	4922,81
466,06	3785,89
466,17	4334,80
466,28	4142,26
466,39	5960,75
466,50	3150,43
466,61	2674,05
466,72	4685,30
466,83	3145,23
466,95	3408,27
467,06	2941,17
467,17	4121,25
467,28	3601,94
467,39	4057,97
467,50	5043,48
467,61	3053,03
467,72	3175,96
467,83	3320,14
467,94	4619,77
468,05	3114,95
468,16	4848,46
468,27	4401,69
468,38	3221,84
468,49	5970,46
468,60	3354,94
468,71	6181,98
468,82	5825,84
468,93	5592,62
469,04	6807,73
469,15	4181,36
469,26	3719,68
469,37	4191,30
469,48	6165,04
469,59	4468,58
469,70	3211,89
469,81	4269,94
469,92	2794,95
470,03	5305,62
470,14	3294,83
470,25	5610,47
470,36	4392,88
470,47	3008,06
470,58	3074,27
470,69	5415,45
470,80	5485,05
470,91	3403,30
471,02	3753,12
471,13	4546,55
471,24	4621,80
471,35	3749,28
471,46	6670,79
471,56	5568,22
471,67	5907,42
471,78	6452,71
471,89	2849,19
472,00	3514,71
472,11	5132,75
472,22	5746,29
472,33	4061,36
472,44	4483,27
472,55	3614,37
472,66	4196,27
472,77	3960,12
472,88	7981,71
472,99	5840,52
473,10	2987,94
473,21	3891,65
473,32	3878,09
473,42	3142,97
473,53	3420,93
473,64	4707,90
473,75	4836,71
473,86	4389,26
473,97	4817,27
474,08	4800,55
474,19	5762,79
474,30	7976,06
474,41	4966,20
474,52	3745,89
474,62	4439,21
474,73	3533,01
474,84	7469,63
474,95	5154,44
475,06	5230,60
475,17	3388,84
475,28	2821,85
475,39	4278,53
475,50	3313,13
475,60	3079,02
475,71	3344,09
475,82	5705,16
475,93	3447,82
476,04	6261,76
476,15	3869,73
476,26	4831,51
476,37	3683,29
476,47	3726,00
476,58	3643,75
476,69	2890,77
476,80	2928,51
476,91	3956,96
477,02	4420,00
477,13	4292,32
477,23	3473,35
477,34	4492,99
477,45	4739,76
477,56	3793,80
477,67	3753,80
477,78	4384,74
477,89	4254,13
477,99	3727,13
478,10	5266,53
478,21	4855,69
478,32	4397,17
478,43	3815,49
478,54	7402,97
478,64	4828,12
478,75	4203,51
478,86	3592,00
478,97	4218,65
479,08	3935,94
479,18	3476,07
479,29	3741,82
479,40	3161,05
479,51	2761,28
479,62	3512,90
479,72	3618,21
479,83	3025,23
479,94	4729,82
480,05	4778,86
480,16	3369,85
480,26	4680,33
480,37	3210,09
480,48	5304,27
480,59	4259,55
480,70	4331,19
480,80	4001,70
480,91	3405,79
481,02	3019,81
481,13	4564,17
481,24	4370,51
481,34	3257,99
481,45	7657,43
481,56	3756,29
481,67	3853,23
481,77	3721,71
481,88	3597,65
481,99	4668,58
482,10	4704,06
482,20	12113,35
482,31	3812,10
482,42	4860,21
482,53	3568,95
482,63	6394,63
482,74	5306,75
482,85	3317,65
482,96	3460,25
483,06	2995,63
483,17	4967,55
483,28	3294,15
483,39	4113,11
483,49	5212,29
483,60	8205,89
483,71	3453,69
483,81	5567,99
483,92	4048,03
484,03	4050,97
484,14	3715,83
484,24	3271,10
484,35	4095,26
484,46	4257,74
484,57	3592,67
484,67	4791,74
484,78	3602,39
484,89	7793,92
484,99	3661,60
485,10	4112,43
485,21	4764,17
485,31	4671,29
485,42	4556,94
485,53	3639,45
485,63	4056,84
485,74	6780,84
485,85	8941,91
485,96	16508,04
486,06	3970,52
486,17	4320,79
486,28	4689,82
486,38	2950,43
486,49	5460,20
486,60	3183,19
486,70	3308,84
486,81	3718,55
486,92	3422,28
487,02	3460,93
487,13	2726,71
487,24	3671,99
487,34	3306,13
487,45	6784,23
487,56	4059,78
487,66	3263,19
487,77	4504,29
487,87	3626,35
487,98	2742,07
488,09	3913,57
488,19	2722,19
488,30	8092,22
488,41	3628,61
488,51	2979,13
488,62	3354,04
488,73	3380,02
488,83	4229,49
488,94	4881,23
489,04	6713,50
489,15	3454,15
489,26	3161,72
489,36	4601,01
489,47	3685,10
489,58	3226,36
489,68	4768,01
489,79	3338,67
489,89	4256,61
490,00	3702,28
490,11	4643,72
490,21	4616,15
490,32	3176,87
490,42	4085,32
490,53	4304,29
490,64	3130,09
490,74	3232,91
490,85	3020,94
490,95	5186,98
491,06	4696,15
491,16	3416,41
491,27	4785,18
491,38	3631,54
491,48	7500,59
491,59	6817,22
491,69	4644,85
491,80	2869,98
491,90	6330,91
492,01	3054,38
492,12	5038,51
492,22	3715,16
492,33	5736,35
492,43	4224,30
492,54	3073,14
492,64	3277,20
492,75	4270,40
492,86	4420,45
492,96	3912,44
493,07	3449,40
493,17	4501,80
493,28	4498,64
493,38	4532,08
493,49	3526,91
493,59	4832,19
493,70	4369,60
493,80	3405,33
493,91	3095,06
494,01	3368,72
494,12	3562,84
494,22	5631,49
494,33	6650,45
494,43	6250,01
494,54	6996,20
494,64	4842,36
494,75	3432,23
494,86	5891,82
494,96	3360,36
495,07	3903,63
495,17	6106,51
495,28	3841,71
495,38	3394,94
495,49	4066,56
495,59	4728,69
495,69	4149,27
495,80	6271,25
495,90	3815,27
496,01	3069,07
496,11	4591,52
496,22	3778,21
496,32	3128,96
496,43	5373,42
496,53	3738,43
496,64	3875,60
496,74	4540,22
496,85	5064,95
496,95	4386,33
497,06	3568,95
497,16	4706,09
497,27	4022,49
497,37	5943,12
497,48	3145,23
497,58	3156,30
497,68	3670,64
497,79	5534,09
497,89	3645,33
498,00	4147,46
498,10	2976,64
498,21	5638,27
498,31	3629,74
498,42	3399,46
498,52	5729,34
498,62	4094,81
498,73	4172,55
498,83	4714,45
498,94	3534,82
499,04	5834,87
499,15	3808,71
499,25	3206,70
499,35	5144,72
499,46	6765,25
499,56	7809,96
499,67	4991,28
499,77	2824,56
499,87	3239,46
499,98	3476,74
500,08	2643,77
500,19	3531,21
500,29	4075,83
500,39	4770,50
500,50	5489,80
500,60	4130,51
500,71	4201,02
500,81	4279,21
500,91	3091,22
501,02	3618,66
501,12	4916,03
501,22	3096,64
501,33	4328,25
501,43	5246,87
501,54	2973,03
501,64	3483,52
501,74	3601,04
501,85	6237,80
501,95	3330,08
502,05	3373,47
502,16	3765,55
502,26	6582,65
502,37	5043,26
502,47	4435,82
502,57	3881,93
502,68	3469,74
502,78	3219,12
502,88	5574,32
502,99	3920,35
503,09	5509,46
503,19	3188,39
503,30	2961,05
503,40	3319,46
503,50	3629,96
503,61	4101,81
503,71	3808,94
503,81	3845,55
503,92	4385,87
504,02	5598,72
504,12	9694,89
504,23	5945,83
504,33	3984,30
504,43	3821,59
504,54	5298,62
504,64	5159,86
504,74	9716,81
504,84	4326,44
504,95	3683,74
505,05	2661,62
505,15	6187,63
505,26	3103,20
505,36	3572,56
505,46	3507,48
505,56	4787,67
505,67	4840,78
505,77	4738,18
505,87	3276,98
505,98	2874,50
506,08	3629,74
506,18	4025,88
506,28	4351,52
506,39	4018,20
506,49	3671,54
506,59	3643,52
506,70	3060,03
506,80	4345,65
506,90	7149,64
507,00	2847,61
507,11	4298,64
507,21	5533,41
507,31	4997,38
507,41	4194,24
507,52	3728,26
507,62	4077,86
507,72	5963,01
507,82	5808,43
507,93	3905,89
508,03	5673,07
508,13	4709,48
508,23	4110,40
508,34	4709,48
508,44	3392,91
508,54	3395,84
508,64	4234,46
508,74	2914,50
508,85	3573,01
508,95	3992,21
509,05	3032,91
509,15	3827,70
509,26	4662,93
509,36	3278,33
509,46	4295,03
509,56	3105,46
509,66	4083,51
509,77	3305,68
509,87	3686,91
509,97	4031,98
510,07	4293,90
510,17	2763,54
510,28	8316,17
510,38	5465,62
510,48	3628,15
510,58	4805,75
510,68	4269,49
510,78	4228,59
510,89	3601,71
510,99	2859,13
511,09	5354,66
511,19	5077,83
511,29	3065,91
511,39	5572,06
511,50	5910,13
511,60	3094,83
511,70	5114,89
511,80	5443,47
511,90	5388,33
512,00	4066,79
512,11	3335,96
512,21	4332,32
512,31	3067,94
512,41	6583,33
512,51	4454,12
512,61	7902,39
512,71	3569,62
512,82	3607,81
512,92	2741,40
513,02	4809,59
513,12	3865,89
513,22	3568,72
513,32	5377,49
513,42	4507,68
513,53	5666,52
513,63	4846,88
513,73	5269,24
513,83	3078,34
513,93	4843,71
514,03	5054,78
514,13	6511,02
514,23	3412,57
514,33	3841,48
514,44	3834,48
514,54	3695,72
514,64	7230,77
514,74	3887,81
514,84	3788,83
514,94	5331,61
515,04	5175,01
515,14	4531,18
515,24	4840,78
515,34	4499,32
515,44	2752,47
515,55	2806,93
515,65	5025,86
515,75	3657,53
515,85	3890,07
515,95	5099,07
516,05	6339,72
516,15	4770,95
516,25	3266,35
516,35	3565,10
516,45	3674,25
516,55	3529,40
516,65	4113,11
516,75	7662,40
516,85	5036,93
516,95	5560,98
517,05	5975,66
517,16	3307,26
517,26	8685,42
517,36	3679,90
517,46	3090,31
517,56	4662,70
517,66	4099,33
517,76	3685,78
517,86	3688,26
517,96	4975,24
518,06	3410,98
518,16	3553,58
518,26	4823,15
518,36	3385,67
518,46	3870,86
518,56	5432,85
518,66	5807,08
518,76	4457,96
518,86	5739,06
518,96	3529,40
519,06	3853,23
519,16	5093,20
519,26	4561,69
519,36	5165,51
519,46	4709,25
519,56	6706,04
519,66	8075,04
519,76	3954,02
519,86	4051,19
519,96	4927,10
520,06	4443,50
520,16	7458,11
520,26	5148,79
520,36	4091,87
520,46	4053,90
520,56	3948,14
520,66	4204,86
520,76	3855,72
520,86	4240,11
520,96	6365,03
521,06	5186,53
521,16	3634,48
521,26	4341,35
521,35	5294,32
521,45	3466,12
521,55	4134,81
521,65	5290,03
521,75	4024,75
521,85	3226,36
521,95	4507,23
522,05	3396,75
522,15	3702,28
522,25	16947,35
522,35	5925,49
522,45	4222,49
522,55	5780,19
522,65	4665,87
522,75	3806,45
522,85	4082,15
522,94	4370,73
523,04	5565,28
523,14	4932,07
523,24	3686,91
523,34	3861,82
523,44	4835,81
523,54	3926,45
523,64	3727,36
523,74	6984,90
523,84	5430,59
523,94	5074,44
524,03	3345,00
524,13	4830,38
524,23	4820,89
524,33	3444,66
524,43	4053,00
524,53	4244,18
524,63	3440,14
524,73	3551,77
524,83	3038,79
524,92	3801,03
525,02	3036,08
525,12	5195,34
525,22	4080,12
525,32	3070,20
525,42	5633,75
525,52	4070,40
525,61	4631,29
525,71	2737,10
525,81	4471,75
525,91	3041,73
526,01	4164,86
526,11	4281,47
526,21	5107,66
526,30	4490,05
526,40	3444,66
526,50	4446,21
526,60	5096,36
526,70	5000,77
526,80	4798,29
526,89	3694,37
526,99	3271,33
527,09	4268,14
527,19	4518,75
527,29	5102,24
527,39	3951,08
527,48	4644,85
527,58	4520,79
527,68	2984,10
527,78	5893,40
527,88	7469,41
527,97	3974,36
528,07	3158,11
528,17	5588,55
528,27	5808,21
528,37	3925,32
528,46	3289,41
528,56	6716,66
528,66	5007,10
528,76	2913,82
528,86	5386,75
528,95	3194,72
529,05	4203,05
529,15	4297,97
529,25	5198,73
529,35	5405,51
529,44	4947,67
529,54	6198,48
529,64	4871,28
529,74	3792,67
529,83	3113,14
529,93	3661,15
530,03	4582,93
530,13	4177,52
530,22	5946,28
530,32	5715,78
530,42	5257,49
530,52	2664,34
530,61	5304,49
530,71	3021,39
530,81	5247,77
530,91	3910,18
531,00	3784,99
531,10	3683,52
531,20	4658,18
531,30	3918,32
531,39	4345,20
531,49	4346,10
531,59	10121,32
531,69	8481,13
531,78	7341,73
531,88	9094,22
531,98	9500,32
532,07	7431,22
532,17	8222,16
532,27	8218,31
532,37	5532,51
532,46	5337,03
532,56	4612,08
532,66	3104,78
532,75	3943,63
532,85	4299,10
532,95	3955,83
533,04	4024,07
533,14	4470,84
533,24	5009,59
533,34	3615,05
533,43	5101,33
533,53	2793,60
533,63	4712,19
533,72	3758,77
533,82	3186,58
533,92	3124,21
534,01	8595,25
534,11	9520,65
534,21	4880,10
534,30	3665,67
534,40	3952,21
534,50	2854,16
534,59	3564,20
534,69	3132,80
534,79	4258,65
534,88	6257,01
534,98	5556,01
535,08	2584,56
535,17	5004,16
535,27	3677,42
535,36	3264,32
535,46	4710,16
535,56	3021,62
535,65	4756,49
535,75	5361,21
535,85	4398,98
535,94	3518,33
536,04	3992,44
536,14	4991,73
536,23	6276,22
536,33	3572,11
536,42	4339,32
536,52	3735,04
536,62	2773,94
536,71	4513,33
536,81	4114,24
536,90	4089,16
537,00	4326,89
537,10	3377,54
537,19	4173,68
537,29	4822,92
537,38	5713,75
537,48	4070,63
537,58	4083,06
537,67	3303,19
537,77	3818,20
537,86	3562,84
537,96	5951,26
538,06	3901,59
538,15	3223,19
538,25	7270,54
538,34	8099,45
538,44	7392,80
538,53	4983,15
538,63	6251,14
538,73	5363,93
538,82	4442,82
538,92	4257,06
539,01	7855,84
539,11	3651,66
539,20	8718,41
539,30	5699,74
539,39	4521,01
539,49	6012,50
539,59	6492,03
539,68	10063,46
539,78	9907,99
539,87	7028,52
539,97	7311,67
540,06	7442,29
540,16	5586,07
540,25	7333,59
540,35	9013,55
540,44	7501,50
540,54	9508,22
540,63	7044,79
540,73	6334,52
540,82	7941,94
540,92	6441,41
541,01	8944,85
541,11	9472,75
541,20	7831,43
541,30	7998,66
541,39	8809,49
541,49	8205,66
541,58	10546,84
541,68	10154,54
541,77	8359,10
541,87	6781,74
541,96	6756,21
542,06	9404,95
542,15	8672,09
542,25	10792,03
542,34	9429,36
542,44	7428,51
542,53	8168,37
542,63	8871,86
542,72	7707,37
542,82	7741,72
542,91	8464,64
543,01	7568,61
543,10	9728,33
543,20	8416,28
543,29	9012,87
543,38	7667,82
543,48	8484,07
543,57	8175,60
543,67	8129,96
543,76	8638,64
543,86	8612,43
543,95	9929,00
544,05	12468,15
544,14	13766,87
544,23	9707,99
544,33	9224,39
544,42	10848,98
544,52	9457,83
544,61	10231,82
544,71	12476,28
544,80	13274,45
544,89	12177,31
544,99	10129,90
545,08	11570,09
545,18	8119,33
545,27	13691,39
545,36	11613,71
545,46	10065,95
545,55	8726,55
545,65	9133,77
545,74	8456,95
545,84	7676,18
545,93	9200,66
546,02	8606,78
546,12	10463,68
546,21	9681,33
546,30	9292,19
546,40	9489,47
546,49	8066,45
546,59	9428,90
546,68	8380,34
546,77	10495,77
546,87	9283,37
546,96	10578,48
547,05	9586,41
547,15	8009,28
547,24	8930,16
547,34	8085,89
547,43	8965,64
547,52	10766,95
547,62	9563,59
547,71	9945,50
547,80	9854,66
547,90	8838,86
547,99	12095,50
548,08	9514,10
548,18	7338,11
548,27	7977,87
548,36	7802,73
548,46	8215,60
548,55	8197,30
548,64	9309,36
548,74	7989,85
548,83	9238,40
548,92	12110,19
549,02	7973,12
549,11	13544,05
549,20	10091,26
549,30	8419,67
549,39	9162,70
549,48	9430,49
549,58	7713,47
549,67	9778,73
549,76	9138,29
549,85	7681,83
549,95	8729,49
550,04	10176,46
550,13	7647,26
550,23	10021,21
550,32	8056,74
550,41	7947,36
550,50	9518,17
550,60	11827,49
550,69	8858,07
550,78	7488,62
550,88	10340,97
550,97	9914,54
551,06	8737,40
551,15	8868,92
551,25	11488,06
551,34	7694,49
551,43	8522,94
551,52	9394,56
551,62	10421,65
551,71	10799,72
551,80	10288,99
551,89	9176,93
551,99	8614,46
552,08	8787,57
552,17	8185,55
552,26	9569,01
552,36	7371,78
552,45	7616,52
552,54	7474,61
552,63	9795,22
552,73	12389,73
552,82	12163,07
552,91	9204,96
553,00	14104,04
553,10	9158,18
553,19	12328,72
553,28	8500,34
553,37	10472,72
553,46	7852,00
553,56	10468,43
553,65	7974,03
553,74	7733,36
553,83	9754,32
553,92	8907,34
554,02	9648,56
554,11	8678,19
554,20	7691,10
554,29	12078,55
554,38	8369,72
554,48	8791,63
554,57	8206,34
554,66	8434,35
554,75	9920,87
554,84	10074,09
554,94	9470,94
555,03	8251,31
555,12	7622,62
555,21	7816,97
555,30	12679,44
555,39	8000,47
555,49	8475,94
555,58	9777,60
555,67	10314,08
555,76	11078,80
555,85	8049,28
555,94	8101,26
556,03	8877,96
556,13	9270,49
556,22	8951,63
556,31	9396,59
556,40	7720,93
556,49	11041,97
556,58	9153,88
556,67	9149,59
556,77	8863,27
556,86	12072,22
556,95	10673,17
557,04	12696,16
557,13	13289,14
557,22	12556,73
557,31	11396,08
557,40	11525,12
557,50	15358,69
557,59	12677,41
557,68	14262,22
557,77	18655,55
557,86	17935,80
557,95	18527,87
558,04	18200,20
558,13	17731,74
558,22	17696,48
558,31	15659,93
558,41	13122,14
558,50	14392,84
558,59	13365,75
558,68	12953,56
558,77	11852,34
558,86	8490,85
558,95	8260,80
559,04	9954,31
559,13	11451,90
559,22	8418,99
559,31	8802,25
559,40	8082,73
559,49	8381,02
559,59	10384,81
559,68	7381,05
559,77	11644,89
559,86	12418,88
559,95	9047,45
560,04	8698,08
560,13	9549,81
560,22	12953,33
560,31	9341,90
560,40	9372,18
560,49	7398,90
560,58	8322,27
560,67	7659,46
560,76	7704,66
560,85	7162,07
560,94	11055,30
561,03	7963,18
561,12	15208,87
561,21	13340,21
561,30	8750,96
561,39	8657,17
561,48	9035,69
561,57	7446,13
561,66	9951,38
561,75	12236,29
561,84	8341,70
561,93	8514,13
562,02	8835,70
562,11	7854,03
562,20	8131,76
562,29	9298,74
562,38	7514,38
562,47	11083,55
562,56	10039,51
562,65	9162,70
562,74	9970,13
562,83	16709,84
562,92	11706,36
563,01	14247,31
563,10	10440,18
563,19	11544,56
563,28	19050,35
563,37	14027,20
563,46	10746,38
563,55	11354,05
563,64	17606,99
563,73	10072,96
563,82	12123,07
563,91	14573,18
564,00	11133,27
564,09	10158,83
564,18	11827,94
564,27	10227,98
564,35	12739,78
564,44	12077,20
564,53	13673,09
564,62	13300,89
564,71	12379,34
564,80	12126,46
564,89	12192,90
564,98	45060,74
565,07	11483,54
565,16	9088,57
565,25	20131,90
565,34	9058,74
565,43	9216,48
565,51	8531,98
565,60	12343,40
565,69	8588,02
565,78	12466,34
565,87	7322,75
565,96	6982,64
566,05	10123,35
566,14	11426,82
566,23	9566,30
566,32	11826,81
566,40	10393,40
566,49	11621,16
566,58	7898,32
566,67	8685,87
566,76	7590,76
566,85	7943,97
566,94	8763,39
567,03	9611,50
567,11	8153,01
567,20	8203,40
567,29	10895,31
567,38	9386,65
567,47	6921,17
567,56	8488,14
567,65	8584,41
567,73	7015,18
567,82	6960,72
567,91	8993,89
568,00	8169,05
568,09	9101,68
568,18	7251,33
568,27	8113,01
568,35	8505,31
568,44	9583,93
568,53	8825,53
568,62	7052,47
568,71	6979,48
568,80	7530,88
568,88	9697,37
568,97	10910,45
569,06	6873,49
569,15	7706,46
569,24	9135,13
569,32	9516,36
569,41	8429,83
569,50	6992,36
569,59	6747,39
569,68	7104,45
569,76	8505,77
569,85	9618,96
569,94	10150,02
570,03	7692,91
570,12	10008,10
570,20	9029,37
570,29	10124,03
570,38	9872,96
570,47	10058,49
570,56	7924,99
570,64	9125,41
570,73	9307,10
570,82	12308,83
570,91	10842,20
570,99	7856,29
571,08	7567,26
571,17	8070,30
571,26	10861,64
571,34	7711,44
571,43	8993,89
571,52	9372,63
571,61	7105,12
571,69	7057,44
571,78	9776,92
571,87	10233,86
571,96	9952,28
572,04	9668,45
572,13	9660,99
572,22	7178,34
572,31	6813,15
572,39	7222,63
572,48	8563,84
572,57	7626,47
572,66	7170,21
572,74	6492,03
572,83	8880,90
572,92	7665,34
573,00	6768,86
573,09	9112,75
573,18	9757,94
573,27	9274,56
573,35	7222,86
573,44	6778,13
573,53	8134,02
573,61	8058,77
573,70	9144,84
573,79	7275,29
573,87	12098,66
573,96	7490,42
574,05	8248,82
574,14	8157,30
574,22	7607,48
574,31	9919,97
574,40	6986,26
574,48	8545,76
574,57	8845,64
574,66	8212,44
574,74	8448,37
574,83	10691,47
574,92	10854,18
575,00	8309,61
575,09	10779,60
575,18	8314,58
575,26	11970,08
575,35	8355,03
575,43	8709,15
575,52	10621,87
575,61	10294,87
575,69	11247,16
575,78	9007,22
575,87	14314,43
575,95	11382,53
576,04	9939,17
576,13	11942,96
576,21	11141,85
576,30	12909,49
576,38	12841,92
576,47	12124,20
576,56	11983,64
576,64	12209,40
576,73	13749,02
576,82	12768,03
576,90	11466,37
576,99	11103,66
577,07	9876,80
577,16	9850,36
577,25	10867,74
577,33	14196,69
577,42	9943,69
577,50	8682,26
577,59	10447,18
577,68	11566,93
577,76	9211,96
577,85	8783,50
577,93	9247,67
578,02	9165,63
578,10	8551,87
578,19	8719,32
578,28	7829,85
578,36	8162,72
578,45	8310,74
578,53	6886,60
578,62	7304,21
578,70	7034,17
578,79	7992,78
578,88	7982,61
578,96	6797,56
579,05	6800,95
579,13	11397,21
579,22	8428,70
579,30	7219,02
579,39	8667,34
579,47	10757,01
579,56	6981,06
579,64	16308,27
579,73	7313,48
579,82	8388,48
579,90	6547,40
579,99	6793,49
580,07	8320,23
580,16	7664,43
580,24	8934,45
580,33	5738,61
580,41	7708,05
580,50	6172,04
580,58	7344,44
580,67	6958,69
580,75	7371,56
580,84	7275,06
580,92	6142,89
581,01	10568,31
581,09	6336,78
581,18	7026,03
581,26	6453,16
581,35	5932,27
581,43	8805,42
581,52	7270,32
581,60	7997,98
581,69	7197,10
581,77	7728,61
581,86	7900,36
581,94	6992,36
582,02	9069,59
582,11	6090,91
582,19	9841,10
582,28	11422,98
582,36	10809,43
582,45	10974,85
582,53	6459,27
582,62	6616,55
582,70	6357,57
582,79	8043,63
582,87	6208,65
582,96	7911,20
583,04	9915,22
583,12	7640,03
583,21	7511,44
583,29	7876,86
583,38	7899,91
583,46	7039,14
583,55	7521,16
583,63	5978,37
583,71	8035,04
583,80	7339,92
583,88	5904,70
583,97	12062,51
584,05	7922,96
584,13	8600,23
584,22	8204,53
584,30	6624,91
584,39	8350,51
584,47	8858,30
584,55	6272,83
584,64	7450,43
584,72	7692,91
584,81	5810,02
584,89	6125,94
584,97	6012,95
585,06	5979,28
585,14	7024,45
585,23	7555,28
585,31	5558,95
585,39	6622,65
585,48	7371,56
585,56	5630,36
585,64	7547,15
585,73	7014,50
585,81	6861,97
585,90	8178,99
585,98	6350,34
586,06	6667,17
586,15	9517,94
586,23	5458,84
586,31	6110,80
586,40	5639,63
586,48	9051,74
586,56	5962,56
586,65	5450,70
586,73	5898,83
586,81	7699,23
586,90	6437,12
586,98	5277,38
587,06	5371,61
587,15	6423,11
587,23	6338,82
587,31	6767,51
587,40	5896,79
587,48	5562,79
587,56	8746,89
587,65	11673,37
587,73	7888,61
587,81	7244,56
587,90	10150,24
587,98	6765,02
588,06	5798,04
588,14	5707,19
588,23	6110,12
588,31	9208,12
588,39	7785,78
588,48	6388,31
588,56	5835,78
588,64	7324,78
588,72	6981,96
588,81	6035,55
588,89	6370,45
588,97	6644,57
589,06	8770,16
589,14	8550,06
589,22	7097,21
589,30	6361,41
589,39	5799,40
589,47	7794,82
589,55	9683,36
589,63	6984,00
589,72	6108,77
589,80	5923,69
589,88	7400,94
589,96	8139,67
590,05	6799,60
590,13	6927,50
590,21	8343,74
590,29	9096,71
590,38	7767,03
590,46	8665,76
590,54	5365,73
590,62	5878,72
590,71	8250,63
590,79	8725,19
590,87	5163,03
590,95	5530,48
591,03	6263,11
591,12	6952,59
591,20	6006,40
591,28	9764,04
591,36	7166,59
591,44	6227,86
591,53	6567,74
591,61	6439,60
591,69	5664,71
591,77	6877,56
591,85	6794,85
591,94	5632,39
592,02	5963,46
592,10	7969,06
592,18	7830,53
592,26	6430,79
592,34	5334,55
592,43	4951,96
592,51	5171,16
592,59	5661,55
592,67	5477,60
592,75	5638,04
592,84	6166,39
592,92	8049,28
593,00	5890,47
593,08	6003,01
593,16	5339,29
593,24	5733,18
593,32	7534,27
593,41	6620,84
593,49	5088,23
593,57	5701,54
593,65	5603,47
593,73	6965,92
593,81	7211,11
593,89	8032,33
593,98	6183,79
594,06	5435,79
594,14	5453,64
594,22	5689,79
594,30	5728,89
594,38	6080,07
594,46	8060,58
594,54	7886,35
594,62	7567,26
594,71	6161,19
594,79	5639,17
594,87	6213,17
594,95	6290,91
595,03	8069,39
595,11	6357,35
595,19	9269,13
595,27	6116,45
595,35	5602,11
595,43	5511,72
595,52	5775,89
595,60	5890,24
595,68	9896,91
595,76	5220,20
595,84	7270,77
595,92	5297,71
596,00	8677,06
596,08	7894,26
596,16	6526,16
596,24	6197,58
596,32	5803,24
596,40	7127,50
596,48	7120,26
596,56	7095,63
596,64	5243,25
596,73	7306,25
596,81	5552,85
596,89	6824,45
596,97	4848,23
597,05	12368,94
597,13	5968,43
597,21	4949,25
597,29	5906,29
597,37	8263,51
597,45	7052,47
597,53	5503,36
597,61	6547,17
597,69	7311,45
597,77	6054,53
597,85	5601,89
597,93	6415,42
598,01	5917,58
598,09	7587,60
598,17	6186,50
598,25	6485,71
598,33	4925,29
598,41	5854,31
598,49	4925,75
598,57	5337,03
598,65	5998,26
598,73	6298,37
598,81	7672,34
598,89	6032,16
598,97	5130,94
599,05	8423,06
599,13	5818,15
599,21	5240,99
599,29	6355,77
599,37	5848,66
599,45	5406,64
599,53	8774,68
599,61	5337,26
599,69	6822,19
599,77	5909,22
599,85	5332,97
599,93	5675,11
600,00	5041,00
600,08	7040,49
600,16	4633,55
600,24	5005,07
600,32	8807,23
600,40	9453,99
600,48	8301,93
600,56	7804,09
600,64	7788,95
600,72	5951,93
600,80	6232,38
600,88	5946,28
600,96	8060,35
601,04	4908,35
601,12	5351,72
601,19	4433,33
601,27	5500,19
601,35	6098,14
601,43	5240,54
601,51	6417,68
601,59	5293,65
601,67	4827,22
601,75	5480,76
601,83	6206,84
601,91	4669,03
601,98	4939,53
602,06	7703,07
602,14	6367,06
602,22	6744,23
602,30	7293,59
602,38	6268,31
602,46	4963,26
602,54	7878,66
602,61	6704,46
602,69	6395,09
602,77	4624,06
602,85	4962,13
602,93	5037,61
603,01	6087,52
603,09	7765,90
603,17	5462,68
603,24	6660,39
603,32	4703,38
603,40	6065,60
603,48	6860,61
603,56	4558,75
603,64	4774,79
603,71	4879,65
603,79	5868,32
603,87	7125,69
603,95	10374,64
604,03	5620,19
604,11	7628,50
604,18	6365,26
604,26	5162,35
604,34	4645,08
604,42	6289,78
604,50	4994,67
604,57	5047,78
604,65	5622,45
604,73	5779,28
604,81	6178,59
604,89	4907,89
604,96	5504,71
605,04	6677,56
605,12	5478,27
605,20	7066,93
605,28	8205,66
605,35	6006,62
605,43	6212,94
605,51	5416,13
605,59	7167,72
605,67	9402,24
605,74	5649,12
605,82	6026,96
605,90	4855,47
605,98	6838,01
606,05	5795,55
606,13	6821,06
606,21	6023,80
606,29	5551,49
606,36	5773,41
606,44	5052,07
606,52	5970,46
606,60	5542,45
606,67	4426,55
606,75	5183,59
606,83	4201,70
606,91	7156,42
606,98	4880,10
607,06	5761,66
607,14	5416,35
607,22	5398,50
607,29	4968,46
607,37	5836,68
607,45	6497,91
607,52	6862,19
607,60	6805,70
607,68	5662,90
607,76	6421,75
607,83	4154,24
607,91	6565,03
607,99	6261,30
608,06	6157,58
608,14	5198,73
608,22	5584,49
608,30	7829,85
608,37	4558,07
608,45	4001,93
608,53	5951,26
608,60	6066,73
608,68	4819,99
608,76	5288,67
608,83	6783,78
608,91	4608,92
608,99	6794,17
609,06	6012,27
609,14	6606,38
609,22	5388,56
609,29	4857,27
609,37	4300,45
609,45	7202,97
609,52	4644,17
609,60	4699,54
609,68	4859,31
609,75	5597,14
609,83	4027,46
609,91	8962,02
609,98	5083,71
610,06	4987,89
610,13	6381,75
610,21	5783,80
610,29	5755,10
610,36	4181,58
610,44	4930,27
610,52	5525,28
610,59	4528,69
610,67	4427,91
610,74	5505,39
610,82	4663,15
610,90	6096,11
610,97	5012,30
611,05	6300,63
611,13	5820,64
611,20	8149,16
611,28	4700,22
611,35	5464,72
611,43	4072,66
611,51	6042,55
611,58	5744,71
611,66	7785,33
611,73	4567,79
611,81	7562,06
611,88	5973,63
611,96	6669,88
612,04	4506,77
612,11	4422,03
612,19	8222,83
612,26	5048,68
612,34	5561,89
612,41	5293,65
612,49	3980,46
612,57	4057,97
612,64	4427,00
612,72	7555,28
612,79	9054,90
612,87	4032,89
612,94	3944,30
613,02	5565,28
613,09	5127,77
613,17	6158,93
613,24	4878,52
613,32	6777,22
613,40	4855,47
613,47	5154,89
613,55	4273,79
613,62	6983,32
613,70	7232,58
613,77	4593,33
613,85	6795,98
613,92	5070,60
614,00	4213,67
614,07	4847,33
614,15	3869,05
614,22	4222,04
614,30	5831,03
614,37	4116,05
614,45	4805,52
614,52	4418,87
614,60	4923,71
614,67	6450,45
614,75	3885,77
614,82	6137,24
614,90	4632,19
614,97	4229,04
615,05	7879,34
615,12	6572,26
615,20	5374,32
615,27	5360,76
615,34	5203,93
615,42	4289,38
615,49	5173,20
615,57	4029,95
615,64	4378,87
615,72	4628,58
615,79	4600,33
615,87	5782,45
615,94	7133,15
616,02	5547,88
616,09	7063,54
616,16	5806,85
616,24	5338,39
616,31	4082,15
616,39	7282,07
616,46	6847,73
616,54	5483,02
616,61	8039,79
616,68	4167,57
616,76	4991,51
616,83	5825,84
616,91	4489,60
616,98	4257,52
617,06	6680,05
617,13	4354,91
617,20	4560,78
617,28	5093,88
617,35	4050,06
617,43	6979,93
617,50	4488,70
617,57	4942,47
>>>>>End Processed Spectral Data<<<<<
