SpectraSuite Datei
++++++++++++++++++++++++++++++++++++
Datum: Thu Jan 01 10:36:32 CET 2004
Benutzer: H. Stützler
Dark-Spektrum vorhanden: Nein
Referenz-Spektrum vorhanden: Nein
Zahl der probierten Teilspektren: 1
Spektrometer: USB2+H04734
Integrationszeit (usec): 30000000 (USB2+H04734)
Spektren Durchschnitt berechnet: 10 (USB2+H04734)
Boxcar Glättung: 0 (USB2+H04734)
Dunkelstromkorrektur: Nein (USB2+H04734)
Puls/Lampe aktiviert: Nein (USB2+H04734)
Correct for Detector Non-linearity: Nein (USB2+H04734)
Streulichtkorrektur: Nein (USB2+H04734)
Anzahl Pixel in verarbeitetem Spektrum: 2048
>>>>>Begin Processed Spectral Data<<<<<
418,45	1315,67
418,57	1315,67
418,69	1315,67
418,80	1240,87
418,92	1219,40
419,04	7772,00
419,16	3682,16
419,28	3887,58
419,40	3312,00
419,52	3908,60
419,64	3172,57
419,75	3414,15
419,87	3542,28
419,99	3038,11
420,11	3312,46
420,23	3660,02
420,35	4848,23
420,47	4018,65
420,58	3296,64
420,70	4212,77
420,82	3845,55
420,94	4727,79
421,06	6173,85
421,18	4850,04
421,29	4241,92
421,41	3478,55
421,53	4252,77
421,65	5546,29
421,77	5414,55
421,89	4207,12
422,00	6544,01
422,12	4000,80
422,24	3770,52
422,36	5919,62
422,48	5804,59
422,59	4236,50
422,71	5448,44
422,83	3417,54
422,95	3766,23
423,07	5116,70
423,18	6462,65
423,30	5568,89
423,42	3805,10
423,54	4387,91
423,66	3780,47
423,77	4586,55
423,89	3993,34
424,01	3620,02
424,13	3339,35
424,25	3574,82
424,36	4810,49
424,48	4434,23
424,60	3968,48
424,72	6209,33
424,84	3971,87
424,95	5821,09
425,07	4416,61
425,19	4462,48
425,31	4727,56
425,42	3376,18
425,54	5135,68
425,66	4788,12
425,78	3823,63
425,89	4388,13
426,01	3935,04
426,13	4165,99
426,25	5860,18
426,36	4036,05
426,48	5047,78
426,60	5268,11
426,72	4114,92
426,83	5343,14
426,95	4983,15
427,07	4248,48
427,19	7139,47
427,30	4474,91
427,42	3204,66
427,54	3512,90
427,66	4066,56
427,77	3711,09
427,89	4580,90
428,01	4936,14
428,12	5014,33
428,24	3246,92
428,36	3503,41
428,48	3251,89
428,59	3480,59
428,71	4453,89
428,83	3369,40
428,94	3837,41
429,06	3829,96
429,18	5068,34
429,30	4390,84
429,41	3913,80
429,53	5503,58
429,65	5305,85
429,76	4911,06
429,88	3789,28
430,00	4795,81
430,11	6004,14
430,23	3960,80
430,35	6669,66
430,47	3878,54
430,58	3411,89
430,70	5566,18
430,82	4726,20
430,93	9308,00
431,05	4502,93
431,17	4141,13
431,28	5572,51
431,40	3619,57
431,52	6640,73
431,63	3377,76
431,75	3306,35
431,87	4086,45
431,98	5413,42
432,10	4462,03
432,22	4036,73
432,33	5868,32
432,45	4301,58
432,56	4526,66
432,68	5240,77
432,80	3899,33
432,91	5328,22
433,03	4511,97
433,15	6006,40
433,26	4598,75
433,38	4080,57
433,50	3147,04
433,61	5621,10
433,73	6284,13
433,84	4103,17
433,96	3505,44
434,08	4254,13
434,19	4031,31
434,31	4028,82
434,43	4440,34
434,54	4224,75
434,66	3210,99
434,77	3114,95
434,89	5297,04
435,01	4663,15
435,12	3437,20
435,24	3923,51
435,35	3785,21
435,47	6876,66
435,59	4262,03
435,70	3637,64
435,82	4233,56
435,93	5739,51
436,05	4492,76
436,17	4071,08
436,28	4939,53
436,40	4770,95
436,51	3460,02
436,63	4102,94
436,74	5719,62
436,86	6702,65
436,98	11255,30
437,09	3970,52
437,21	5355,34
437,32	3507,93
437,44	5212,07
437,55	3860,69
437,67	15383,32
437,79	7894,93
437,90	4857,27
438,02	3657,30
438,13	40125,05
438,25	6125,49
438,36	5321,44
438,48	4781,80
438,59	5745,16
438,71	4612,76
438,83	3674,71
438,94	3398,33
439,06	5796,91
439,17	5535,22
439,29	3724,65
439,40	4446,66
439,52	3998,76
439,63	4900,66
439,75	3435,62
439,86	3344,54
439,98	4309,49
440,09	5398,50
440,21	4150,40
440,32	3835,15
440,44	3150,43
440,55	4370,73
440,67	3882,61
440,78	5985,61
440,90	3473,13
441,01	3919,67
441,13	3508,38
441,24	4794,22
441,36	6209,33
441,47	3656,18
441,59	5487,77
441,70	3359,23
441,82	5525,50
441,93	4840,55
442,05	3129,41
442,16	3641,94
442,28	3185,23
442,39	4159,89
442,51	5313,53
442,62	3819,33
442,74	5395,11
442,85	4122,60
442,97	7151,22
443,08	5256,81
443,20	5178,39
443,31	4703,83
443,43	3774,59
443,54	4815,24
443,66	3181,61
443,77	3628,61
443,88	3175,96
444,00	4491,41
444,11	5342,23
444,23	6170,01
444,34	3454,60
444,46	3489,17
444,57	6112,61
444,69	5669,00
444,80	4821,12
444,91	8100,35
445,03	3274,72
445,14	5501,78
445,26	3157,66
445,37	3417,99
445,49	4405,76
445,60	5949,90
445,71	5577,48
445,83	4222,26
445,94	3399,91
446,06	5562,79
446,17	3264,55
446,29	2912,69
446,40	4100,01
446,51	5758,27
446,63	4166,67
446,74	3595,39
446,86	3667,70
446,97	5833,29
447,08	3596,29
447,20	3899,78
447,31	3200,14
447,43	4188,59
447,54	4448,24
447,65	5085,06
447,77	3488,95
447,88	4118,54
448,00	4543,84
448,11	3132,80
448,22	3707,25
448,34	4558,07
448,45	3004,89
448,56	3969,39
448,68	4662,93
448,79	5952,16
448,90	4938,40
449,02	3949,73
449,13	3813,23
449,25	5466,52
449,36	3797,87
449,47	3935,26
449,59	6334,52
449,70	4366,66
449,81	3700,92
449,93	4064,30
450,04	3737,30
450,15	3905,89
450,27	4082,60
450,38	4867,22
450,49	3848,26
450,61	6668,07
450,72	4014,36
450,83	5296,36
450,95	3916,73
451,06	4868,12
451,17	6649,77
451,29	5204,83
451,40	3613,01
451,51	3098,90
451,63	3239,01
451,74	5646,86
451,85	3929,84
451,97	5402,80
452,08	4280,57
452,19	3527,36
452,31	6085,26
452,42	4224,75
452,53	6516,89
452,65	5755,33
452,76	3200,59
452,87	3334,15
452,98	3475,39
453,10	4039,67
453,21	3323,53
453,32	3729,85
453,44	3326,01
453,55	2999,02
453,66	7923,18
453,77	4913,77
453,89	5150,83
454,00	6452,03
454,11	4462,71
454,23	4277,63
454,34	4317,63
454,45	3154,04
454,56	4953,54
454,68	7090,89
454,79	4150,40
454,90	4574,34
455,01	3344,77
455,13	3116,75
455,24	6320,51
455,35	3583,86
455,46	2770,77
455,58	3049,41
455,69	6037,81
455,80	4868,35
455,91	3230,42
456,03	4030,40
456,14	5334,77
456,25	3514,94
456,36	3250,76
456,48	3914,70
456,59	5996,45
456,70	3520,13
456,81	5716,69
456,92	6874,40
457,04	5283,25
457,15	7925,67
457,26	3178,45
457,37	3973,68
457,49	3530,75
457,60	3154,95
457,71	4279,21
457,82	4971,85
457,93	4312,20
458,05	5665,84
458,16	3374,83
458,27	3886,00
458,38	4260,23
458,49	4969,81
458,61	3908,82
458,72	4462,03
458,83	3970,29
458,94	4990,83
459,05	4809,59
459,17	11322,64
459,28	3672,22
459,39	4069,50
459,50	3090,99
459,61	5398,05
459,72	3158,79
459,84	3312,00
459,95	4112,21
460,06	10802,88
460,17	3546,80
460,28	3982,27
460,39	4047,58
460,51	4636,04
460,62	4023,62
460,73	3974,36
460,84	2778,91
460,95	6165,94
461,06	6637,57
461,18	6042,55
461,29	5847,08
461,40	4234,69
461,51	4668,58
461,62	8268,94
461,73	4067,69
461,84	4931,40
461,96	4788,80
462,07	5212,29
462,18	3593,35
462,29	4094,36
462,40	5452,06
462,51	3948,60
462,62	6206,16
462,73	8206,79
462,85	5231,27
462,96	4991,28
463,07	5532,74
463,18	7730,87
463,29	5106,53
463,40	3776,17
463,51	3225,23
463,62	3339,80
463,73	5305,40
463,85	3430,87
463,96	4387,46
464,07	4260,23
464,18	3986,34
464,29	3254,15
464,40	6413,16
464,51	4352,20
464,62	3962,16
464,73	3165,57
464,84	5012,52
464,95	3950,40
465,06	4075,83
465,18	2945,69
465,29	4475,14
465,40	3742,73
465,51	4078,54
465,62	5153,54
465,73	4025,88
465,84	4594,68
465,95	4666,54
466,06	3659,79
466,17	4110,40
466,28	3963,96
466,39	5677,59
466,50	3046,02
466,61	2582,30
466,72	4496,60
466,83	2999,47
466,95	3264,55
467,06	2862,52
467,17	3905,66
467,28	3456,18
467,39	3878,32
467,50	4809,82
467,61	2981,62
467,72	3056,64
467,83	3202,18
467,94	4381,13
468,05	3030,88
468,16	4603,04
468,27	4192,43
468,38	3099,13
468,49	5540,42
468,60	3238,78
468,71	5823,35
468,82	5484,15
468,93	5289,13
469,04	6423,56
469,15	4034,47
469,26	3570,53
469,37	3990,86
469,48	5824,25
469,59	4269,27
469,70	3127,15
469,81	4091,19
469,92	2738,91
470,03	5059,98
470,14	3161,72
470,25	5399,18
470,36	4227,01
470,47	2916,99
470,58	2958,11
470,69	5074,67
470,80	5176,59
470,91	3296,64
471,02	3542,73
471,13	4316,95
471,24	4367,79
471,35	3574,37
471,46	6287,29
471,56	5393,76
471,67	5591,27
471,78	6037,36
471,89	2745,69
472,00	3389,06
472,11	4811,17
472,22	5457,94
472,33	3926,00
472,44	4274,01
472,55	3503,18
472,66	3998,99
472,77	3729,85
472,88	7499,24
472,99	5486,41
473,10	2876,99
473,21	3674,03
473,32	3754,48
473,42	3039,02
473,53	3257,99
473,64	4447,79
473,75	4556,26
473,86	4196,50
473,97	4568,24
474,08	4561,69
474,19	5463,81
474,30	7515,51
474,41	4704,96
474,52	3599,68
474,62	4226,10
474,73	3369,40
474,84	6998,69
474,95	4904,05
475,06	4944,73
475,17	3251,44
475,28	2744,33
475,39	4103,62
475,50	3194,27
475,60	2994,27
475,71	3178,00
475,82	5395,34
475,93	3300,70
476,04	5947,41
476,15	3864,76
476,26	4568,02
476,37	3511,55
476,47	3577,76
476,58	3466,58
476,69	2784,56
476,80	2812,36
476,91	3800,13
477,02	4217,74
477,13	4082,60
477,23	3367,37
477,34	4220,91
477,45	4525,98
477,56	3665,89
477,67	3575,50
477,78	4160,57
477,89	4088,48
477,99	3622,50
478,10	5052,52
478,21	4606,43
478,32	4148,59
478,43	3643,29
478,54	6917,11
478,64	4508,58
478,75	3984,53
478,86	3473,13
478,97	4022,49
479,08	3733,69
479,18	3467,48
479,29	3544,31
479,40	3064,10
479,51	2650,55
479,62	3340,48
479,72	3492,56
479,83	2897,78
479,94	4507,45
480,05	4453,67
480,16	3187,03
480,26	4396,72
480,37	3050,99
480,48	5078,28
480,59	4002,61
480,70	4065,43
480,80	3806,00
480,91	3240,14
481,02	2892,35
481,13	4318,53
481,24	4109,95
481,34	3076,08
481,45	7172,24
481,56	3573,01
481,67	3959,44
481,77	3539,79
481,88	3446,01
481,99	5076,48
482,10	4466,78
482,20	10806,72
482,31	3624,54
482,42	4592,87
482,53	3404,88
482,63	6060,18
482,74	4996,93
482,85	3149,52
482,96	3313,36
483,06	2849,19
483,17	4666,77
483,28	3150,65
483,39	3906,11
483,49	4854,34
483,60	7657,88
483,71	3279,91
483,81	5225,17
483,92	3845,32
484,03	3853,01
484,14	3515,16
484,24	3150,65
484,35	3868,15
484,46	4019,56
484,57	3431,32
484,67	4528,24
484,78	3432,45
484,89	7284,10
484,99	3484,43
485,10	3901,59
485,21	4524,40
485,31	4448,24
485,42	4344,52
485,53	3436,97
485,63	3829,28
485,74	6344,47
485,85	8399,55
485,96	23612,71
486,06	4064,07
486,17	3782,73
486,28	4382,03
486,38	2822,07
486,49	5132,97
486,60	3029,52
486,70	3180,48
486,81	3526,01
486,92	3226,36
487,02	3305,00
487,13	2607,39
487,24	3503,64
487,34	3145,91
487,45	6278,25
487,56	3801,93
487,66	3080,82
487,77	4234,92
487,87	3478,33
487,98	2630,89
488,09	3672,22
488,19	2585,92
488,30	7631,44
488,41	3447,82
488,51	2823,65
488,62	3207,37
488,73	3223,19
488,83	3993,12
488,94	4624,96
489,04	6294,98
489,15	3259,35
489,26	3011,67
489,36	4312,43
489,47	3509,51
489,58	3043,76
489,68	4483,50
489,79	3156,98
489,89	3970,97
490,00	3516,52
490,11	4336,16
490,21	4347,00
490,32	3015,51
490,42	3869,28
490,53	4052,55
490,64	2962,18
490,74	3052,80
490,85	2879,02
490,95	4993,32
491,06	4447,79
491,16	3232,23
491,27	4517,17
491,38	3378,89
491,48	7260,15
491,59	6384,46
491,69	4435,59
491,80	2708,18
491,90	5940,18
492,01	2924,44
492,12	4714,68
492,22	3494,60
492,33	5431,50
492,43	3959,90
492,54	2941,84
492,64	3060,94
492,75	3990,63
492,86	4156,50
492,96	3709,73
493,07	3262,51
493,17	4208,93
493,28	4737,73
493,38	4249,61
493,49	4125,32
493,59	4595,36
493,70	4099,33
493,80	3217,77
493,91	2911,79
494,01	3171,89
494,12	3347,26
494,22	5270,14
494,33	6208,42
494,43	5864,25
494,54	6548,53
494,64	4578,41
494,75	3238,33
494,86	5495,22
494,96	3182,97
495,07	3691,43
495,17	5704,71
495,28	3636,29
495,38	3177,09
495,49	3837,87
495,59	4471,07
495,69	3857,53
495,80	5859,96
495,90	3611,20
496,01	2916,99
496,11	4342,48
496,22	3599,45
496,32	2955,85
496,43	5011,62
496,53	3500,25
496,64	3647,14
496,74	4230,85
496,85	4679,42
496,95	4047,58
497,06	3351,10
497,16	4447,57
497,27	3770,30
497,37	5587,88
497,48	2960,60
497,58	2996,53
497,68	3409,85
497,79	5153,76
497,89	3446,01
498,00	3895,26
498,10	2825,91
498,21	5275,12
498,31	3402,85
498,42	3211,67
498,52	5452,51
498,62	3919,22
498,73	3952,21
498,83	4435,82
498,94	3317,88
499,04	5468,78
499,15	3615,27
499,25	3044,89
499,35	4811,62
499,46	6325,71
499,56	7315,06
499,67	4701,57
499,77	2694,39
499,87	3088,51
499,98	3259,58
500,08	2496,88
500,19	3387,26
500,29	3855,94
500,39	4472,42
500,50	5139,30
500,60	3872,21
500,71	3910,18
500,81	4017,75
500,91	2906,14
501,02	3452,79
501,12	4534,80
501,22	2930,32
501,33	4068,59
501,43	4907,89
501,54	2794,50
501,64	3294,38
501,74	3393,13
501,85	5857,47
501,95	3146,81
502,05	3181,39
502,16	3581,37
502,26	6052,50
502,37	4707,90
502,47	4173,68
502,57	3650,53
502,68	3266,13
502,78	3035,40
502,88	5183,14
502,99	3703,86
503,09	5125,74
503,19	2997,89
503,30	2769,42
503,40	3133,93
503,50	3400,36
503,61	3815,27
503,71	3551,55
503,81	3589,96
503,92	4070,63
504,02	5223,82
504,12	9028,01
504,23	5570,47
504,33	3735,04
504,43	3625,22
504,54	4971,62
504,64	4885,97
504,74	9032,08
504,84	4062,04
504,95	3427,25
505,05	2498,92
505,15	5738,38
505,26	2929,41
505,36	3382,74
505,46	3293,25
505,56	4480,56
505,67	4570,73
505,77	4383,16
505,87	3113,14
505,98	2682,87
506,08	3359,01
506,18	3744,99
506,28	4095,26
506,39	3758,09
506,49	3403,53
506,59	3434,03
506,70	2874,05
506,80	4081,47
506,90	6641,41
507,00	2685,35
507,11	4011,42
507,21	5136,36
507,31	4671,06
507,41	3984,98
507,52	3427,03
507,62	3741,60
507,72	6212,49
507,82	5407,99
507,93	3578,44
508,03	5198,96
508,13	4286,44
508,23	3777,08
508,34	4282,15
508,44	3077,89
508,54	3197,20
508,64	3964,42
508,74	2727,61
508,85	3321,04
508,95	3738,21
509,05	2886,03
509,15	3557,19
509,26	4322,37
509,36	3049,86
509,46	4021,36
509,56	2921,05
509,66	3813,69
509,77	3119,24
509,87	3436,29
509,97	3792,67
510,07	3970,29
510,17	2580,27
510,28	7752,79
510,38	5082,58
510,48	3450,76
510,58	4437,85
510,68	4022,27
510,78	3947,01
510,89	3368,27
510,99	2672,70
511,09	4993,77
511,19	4700,67
511,29	2898,68
511,39	5214,33
511,50	5483,92
511,60	2894,16
511,70	4777,05
511,80	5095,01
511,90	5437,60
512,00	3817,30
512,11	3134,83
512,21	4035,60
512,31	2810,77
512,41	6110,80
512,51	4174,81
512,61	7384,21
512,71	3330,31
512,82	3350,19
512,92	2576,20
513,02	4461,35
513,12	3624,76
513,22	3356,30
513,32	4982,02
513,42	4182,49
513,53	5301,56
513,63	4546,10
513,73	4933,88
513,83	2925,12
513,93	4519,88
514,03	4734,79
514,13	6075,09
514,23	3190,88
514,33	3598,55
514,44	3582,96
514,54	3454,15
514,64	6677,34
514,74	3595,39
514,84	3570,98
514,94	4913,77
515,04	4752,42
515,14	4189,95
515,24	4522,59
515,34	4195,14
515,44	2669,08
515,55	2628,41
515,65	4673,32
515,75	3376,86
515,85	3643,75
515,95	4735,24
516,05	5917,81
516,15	4416,83
516,25	3049,86
516,35	3267,03
516,45	3414,37
516,55	3288,95
516,65	3798,54
516,75	7190,09
516,85	4674,68
516,95	5151,50
517,05	5518,72
517,16	3050,54
517,26	8128,37
517,36	3404,66
517,46	2851,22
517,56	4337,29
517,66	3820,46
517,76	3457,31
517,86	3426,80
517,96	4675,13
518,06	3160,59
518,16	3273,59
518,26	4493,22
518,36	3156,98
518,46	3571,21
518,56	4976,82
518,66	5401,67
518,76	4091,19
518,86	5302,91
518,96	3253,02
519,06	3575,73
519,16	4700,44
519,26	4116,73
519,36	4756,71
519,46	4297,74
519,56	6121,87
519,66	7336,76
519,76	3554,48
519,86	3666,12
519,96	4414,35
520,06	3978,88
520,16	6851,80
520,26	4264,97
520,36	3690,07
520,46	3666,12
520,56	3588,38
520,66	3841,48
520,76	3571,66
520,86	3906,34
520,96	5926,62
521,06	4864,05
521,16	3390,19
521,26	4007,35
521,35	4931,40
521,45	3197,88
521,55	3806,23
521,65	4924,84
521,75	3752,22
521,85	2966,25
521,95	4182,49
522,05	3152,91
522,15	5066,76
522,25	25397,98
522,35	5732,28
522,45	3973,45
522,55	5454,77
522,65	4342,03
522,75	3548,16
522,85	3791,99
522,94	4071,53
523,04	5160,99
523,14	4548,81
523,24	3436,07
523,34	3611,43
523,44	4535,93
523,54	3699,79
523,64	3537,53
523,74	6486,84
523,84	5162,12
523,94	4800,33
524,03	3195,85
524,13	4582,93
524,23	4610,50
524,33	3315,62
524,43	3858,66
524,53	4021,82
524,63	3377,54
524,73	3646,46
524,83	2902,30
524,92	3594,26
525,02	2711,12
525,12	4828,80
525,22	3849,62
525,32	2937,10
525,42	5319,18
525,52	3861,14
525,61	4354,01
525,71	2579,37
525,81	4167,57
525,91	2913,37
526,01	3904,76
526,11	4012,32
526,21	4796,26
526,30	4238,53
526,40	3243,98
526,50	4246,67
526,60	4792,87
526,70	4689,37
526,80	4530,50
526,89	3551,55
526,99	3071,11
527,09	4003,51
527,19	4001,48
527,29	4789,48
527,39	3735,95
527,48	4331,19
527,58	4235,14
527,68	2806,71
527,78	5498,16
527,88	6979,93
527,97	3743,18
528,07	3017,10
528,17	5190,37
528,27	5424,26
528,37	3651,88
528,46	3079,69
528,56	6263,11
528,66	4699,76
528,76	2775,97
528,86	5016,82
528,95	3000,37
529,05	3968,94
529,15	4012,55
529,25	4886,65
529,35	5029,25
529,44	4646,21
529,54	5802,11
529,64	4560,78
529,74	3587,25
529,83	2951,79
529,93	3414,15
530,03	4270,17
530,13	3965,09
530,22	5530,93
530,32	5356,02
530,42	4941,34
530,52	2542,31
530,61	4947,67
530,71	2856,87
530,81	4937,05
530,91	3678,32
531,00	3542,73
531,10	3468,16
531,20	4318,76
531,30	3594,26
531,39	3895,94
531,49	3657,98
531,59	8724,97
531,69	6657,23
531,78	5402,80
531,88	6865,58
531,98	7215,40
532,07	5556,92
532,17	6468,08
532,27	6868,29
532,37	4824,05
532,46	4888,69
532,56	4293,22
532,66	2931,90
532,75	3759,45
532,85	4043,74
532,95	3796,06
533,04	3744,53
533,14	4201,47
533,24	4700,44
533,34	3370,98
533,43	4755,81
533,53	2649,42
533,63	4440,11
533,72	3558,55
533,82	3028,39
533,92	2957,66
534,01	8039,79
534,11	8875,92
534,21	4634,00
534,30	3501,15
534,40	3738,66
534,50	2718,80
534,59	3396,52
534,69	3047,15
534,79	4054,81
534,88	5887,08
534,98	5202,35
535,08	2470,90
535,17	4686,43
535,27	3522,39
535,36	3101,61
535,46	4411,18
535,56	2832,92
535,65	4444,63
535,75	5028,12
535,85	4145,88
535,94	3293,70
536,04	3726,46
536,14	4717,84
536,23	5864,93
536,33	3347,48
536,42	4122,60
536,52	3549,96
536,62	2673,60
536,71	4288,02
536,81	3886,90
536,90	3891,20
537,00	4107,69
537,10	3184,32
537,19	3940,24
537,29	4541,12
537,38	5346,53
537,48	4054,13
537,58	3785,21
537,67	3134,15
537,77	3576,18
537,86	3356,30
537,96	5557,59
538,06	3646,91
538,15	3003,08
538,25	6759,82
538,34	7588,50
538,44	6837,33
538,53	4663,15
538,63	5797,14
538,73	5028,79
538,82	4147,01
538,92	3962,16
539,01	7337,21
539,11	3400,59
539,20	8163,40
539,30	5394,66
539,39	4302,49
539,49	5736,35
539,59	6145,38
539,68	9517,94
539,78	9602,91
539,87	7010,89
539,97	7499,46
540,06	7699,46
540,16	6070,57
540,25	7793,02
540,35	9510,26
540,44	7985,78
540,54	9827,31
540,63	7514,38
540,73	6935,86
540,82	8470,29
540,92	7137,44
541,01	9522,69
541,11	10114,31
541,20	8772,65
541,30	8985,98
541,39	9836,35
541,49	9339,64
541,58	11683,76
541,68	11411,23
541,77	9696,92
541,87	8226,68
541,96	8309,61
542,06	10773,95
542,15	10127,64
542,25	12118,33
542,34	10930,11
542,44	8975,81
542,53	9679,52
542,63	10428,88
542,72	9339,64
542,82	9332,86
542,91	10122,45
543,01	9341,90
543,10	11256,65
543,20	10153,86
543,29	10666,16
543,38	9363,82
543,48	10126,29
543,57	9782,57
543,67	9854,66
543,76	10183,01
543,86	10100,30
543,95	11273,15
544,05	13571,85
544,14	14763,91
544,23	10942,31
544,33	10363,80
544,42	11899,12
544,52	10573,96
544,61	11317,89
544,71	13519,19
544,80	14327,76
544,89	13271,74
544,99	11586,81
545,08	13005,08
545,18	9678,62
545,27	15201,18
545,36	13269,48
545,46	11919,69
545,55	10589,55
545,65	11085,13
545,74	10474,30
545,84	9794,09
545,93	11248,97
546,02	10718,36
546,12	12545,21
546,21	12236,51
546,30	11383,43
546,40	11620,26
546,49	10289,90
546,59	11683,31
546,68	10671,36
546,77	12641,48
546,87	11546,82
546,96	12671,76
547,05	11740,03
547,15	10258,26
547,24	11186,82
547,34	10418,71
547,43	11214,39
547,52	12923,28
547,62	11846,69
547,71	12251,88
547,80	12121,04
547,90	11169,20
547,99	14182,45
548,08	11817,54
548,18	9751,61
548,27	10409,67
548,36	10375,09
548,46	10664,13
548,55	10680,62
548,64	11744,55
548,74	10380,07
548,83	11639,24
548,92	14475,10
549,02	10392,50
549,11	15787,61
549,20	12373,46
549,30	10923,78
549,39	11640,82
549,48	11934,83
549,58	10206,06
549,67	12252,33
549,76	11516,08
549,85	10297,13
549,95	11253,26
550,04	12730,06
550,13	10204,03
550,23	12568,94
550,32	10646,05
550,41	10578,03
550,50	11989,74
550,60	14287,08
550,69	11400,60
550,78	10205,16
550,88	12856,61
550,97	12474,02
551,06	11374,39
551,15	11449,64
551,25	13966,19
551,34	10240,86
551,43	11020,28
551,52	11873,13
551,62	12912,65
551,71	13061,80
551,80	12600,12
551,89	11623,20
551,99	11109,76
552,08	11233,83
552,17	10616,67
552,26	12019,12
552,36	9877,48
552,45	10226,85
552,54	9976,23
552,63	12215,27
552,73	14747,41
552,82	14381,09
552,91	11694,61
553,00	16317,31
553,10	11686,25
553,19	14730,01
553,28	11146,83
553,37	13089,83
553,46	10449,67
553,56	12962,37
553,65	10596,56
553,74	10399,27
553,83	12241,03
553,92	11410,77
554,02	12072,00
554,11	11200,16
554,20	10182,11
554,29	14341,09
554,38	10860,28
554,48	11245,13
554,57	10707,97
554,66	10871,58
554,75	12196,97
554,84	12410,97
554,94	11831,78
555,03	10649,44
555,12	10117,47
555,21	10284,02
555,30	14872,38
555,39	10397,01
555,49	10913,84
555,58	12069,29
555,67	12646,22
555,76	13234,45
555,85	10442,89
555,94	10437,92
556,03	11251,91
556,13	11556,08
556,22	11276,31
556,31	11693,93
556,40	10085,16
556,49	13133,44
556,58	11330,10
556,67	11322,19
556,77	10959,03
556,86	13878,51
556,95	12587,92
557,04	14362,56
557,13	14725,94
557,22	13962,57
557,31	12577,97
557,40	12347,25
557,50	15546,03
557,59	12583,17
557,68	13355,13
557,77	16676,85
557,86	15354,85
557,95	15337,90
558,04	15061,07
558,13	15045,25
558,22	14824,02
558,31	13472,64
558,41	11923,75
558,50	13835,79
558,59	13606,65
558,68	13668,57
558,77	13018,41
558,86	10201,31
558,95	10037,70
559,04	11773,25
559,13	13268,13
559,22	10363,80
559,31	10729,89
559,40	10211,93
559,49	10423,00
559,59	12242,39
559,68	9541,67
559,77	13516,93
559,86	14208,67
559,95	10989,99
560,04	10686,50
560,13	11451,45
560,22	14628,99
560,31	11280,38
560,40	11294,84
560,49	9389,13
560,58	10226,17
560,67	9671,16
560,76	9689,01
560,85	9229,36
560,94	12791,08
561,03	9901,66
561,12	16657,87
561,21	15211,35
561,30	10678,59
561,39	10585,26
561,48	10853,50
561,57	9326,99
561,66	11690,09
561,75	13828,11
561,84	10136,23
561,93	10264,81
562,02	10488,31
562,11	9456,02
562,20	9755,00
562,29	10791,81
562,38	9001,12
562,47	12285,33
562,56	11114,74
562,65	10151,82
562,74	10767,85
562,83	16774,93
562,92	11930,76
563,01	13969,35
563,10	10329,22
563,19	11774,61
563,28	18139,18
563,37	13321,91
563,46	10279,73
563,55	10936,66
563,64	16821,48
563,73	9946,18
563,82	12035,39
563,91	14350,36
564,00	11225,47
564,09	10251,26
564,18	11788,62
564,27	10177,59
564,35	12384,08
564,44	11647,15
564,53	12955,59
564,62	12566,00
564,71	11800,82
564,80	11743,87
564,89	11839,24
564,98	44329,91
565,07	11548,40
565,16	9385,29
565,25	19892,58
565,34	9638,84
565,43	9901,21
565,51	9228,91
565,60	12901,13
565,69	9389,13
565,78	13078,30
565,87	8208,82
565,96	8009,51
566,05	10917,00
566,14	12184,76
566,23	10522,89
566,32	12667,46
566,40	11329,87
566,49	12464,53
566,58	8981,68
566,67	9736,69
566,76	8722,71
566,85	9065,75
566,94	9866,63
567,03	10718,36
567,11	9277,04
567,20	9396,82
567,29	11778,45
567,38	10455,09
567,47	8112,10
567,56	9648,33
567,65	9646,75
567,73	8226,00
567,82	8235,26
567,91	10065,05
568,00	9221,68
568,09	10009,45
568,18	8401,59
568,27	9184,39
568,35	9537,15
568,44	10494,41
568,53	9757,71
568,62	8130,86
568,71	8030,75
568,80	8497,18
568,88	10560,40
568,97	11639,24
569,06	7850,42
569,15	8516,84
569,24	9940,53
569,32	10216,23
569,41	9213,32
569,50	7817,20
569,59	7642,28
569,68	7893,35
569,76	9201,34
569,85	10136,91
569,94	11202,64
570,03	8251,99
570,12	10312,72
570,20	9362,47
570,29	10177,36
570,38	9898,04
570,47	9957,25
570,56	7955,05
570,64	9010,84
570,73	9092,64
570,82	11989,74
570,91	10727,18
570,99	7929,96
571,08	7753,47
571,17	8251,76
571,26	10843,33
571,34	8141,25
571,43	9279,08
571,52	9662,12
571,61	7679,57
571,69	7477,77
571,78	10075,44
571,87	10520,63
571,96	10248,54
572,04	9991,38
572,13	9986,18
572,22	7734,71
572,31	7300,37
572,39	7687,03
572,48	8964,74
572,57	8035,27
572,66	7694,71
572,74	7049,08
572,83	9281,79
572,92	8101,26
573,00	7282,52
573,09	9378,51
573,18	10014,20
573,27	9596,36
573,35	7556,19
573,44	7082,98
573,53	8346,90
573,61	8316,39
573,70	9087,90
573,79	7541,50
573,87	11902,96
573,96	7679,12
574,05	8271,87
574,14	8272,78
574,22	7637,99
574,31	9771,95
574,40	7033,04
574,48	8466,90
574,57	8709,83
574,66	8091,31
574,74	8243,17
574,83	10274,53
574,92	10401,76
575,00	8096,74
575,09	10290,12
575,18	7920,24
575,26	11242,19
575,35	8191,65
575,43	8091,76
575,52	9809,69
575,61	9375,12
575,69	10163,57
575,78	8019,90
575,87	12606,22
575,95	9762,23
576,04	8336,96
576,13	9841,55
576,21	8924,06
576,30	10309,79
576,38	10129,68
576,47	9234,56
576,56	9083,38
576,64	9454,67
576,73	10961,97
576,82	10364,47
576,90	9356,36
576,99	9235,46
577,07	8276,17
577,16	8418,76
577,25	9427,55
577,33	12559,90
577,42	8743,95
577,50	7697,20
577,59	9231,85
577,68	10338,71
577,76	8317,75
577,85	8006,12
577,93	8523,17
578,02	8535,82
578,10	8306,90
578,19	8271,42
578,28	7497,20
578,36	7789,40
578,45	8036,62
578,53	6711,46
578,62	7109,64
578,70	6837,56
578,79	7506,70
578,88	7830,75
578,96	6751,46
579,05	6765,70
579,13	10962,20
579,22	8259,90
579,30	7157,55
579,39	8378,08
579,47	10365,15
579,56	6959,59
579,64	15653,15
579,73	7200,71
579,82	8227,35
579,90	6613,84
579,99	6800,27
580,07	8128,37
580,16	7563,87
580,24	8803,38
580,33	5802,11
580,41	7673,24
580,50	6179,05
580,58	7294,72
580,67	6952,13
580,75	7282,75
580,84	7177,89
580,92	6181,76
581,01	10305,49
581,09	6296,56
581,18	7033,49
581,26	6504,01
581,35	5998,03
581,43	8628,02
581,52	7148,29
581,60	7755,05
581,69	7124,33
581,77	7637,77
581,86	7765,67
581,94	6955,98
582,02	7634,15
582,11	6031,71
582,19	9564,04
582,28	10925,36
582,36	10498,48
582,45	10630,45
582,53	6395,31
582,62	6530,90
582,70	6298,82
582,79	7821,04
582,87	6160,29
582,96	7767,25
583,04	9602,23
583,12	7499,92
583,21	7349,86
583,29	7705,56
583,38	7666,92
583,46	6865,13
583,55	7376,98
583,63	5859,28
583,71	7795,50
583,80	7217,21
583,88	5790,36
583,97	11518,12
584,05	7706,46
584,13	8417,18
584,22	8008,60
584,30	6537,46
584,39	8090,18
584,47	8535,59
584,55	6154,41
584,64	7316,42
584,72	7417,21
584,81	5692,28
584,89	5997,81
584,97	5938,60
585,06	5891,37
585,14	6838,69
585,23	7341,50
585,31	5513,30
585,39	6499,26
585,48	7229,87
585,56	5565,50
585,64	7356,42
585,73	6824,68
585,81	6751,01
585,90	7905,78
585,98	6274,19
586,06	6541,30
586,15	9050,38
586,23	5424,04
586,31	5989,45
586,40	5597,37
586,48	8644,74
586,56	5885,72
586,65	5900,64
586,73	5784,25
586,81	7477,54
586,90	6317,80
586,98	5240,54
587,06	5292,74
587,15	6296,56
587,23	6207,07
587,31	6555,08
587,40	5749,00
587,48	5511,95
587,56	8334,47
587,65	11081,97
587,73	7634,83
587,81	7011,34
587,90	9722,46
587,98	6609,32
588,06	5688,21
588,14	5624,03
588,23	5988,32
588,31	8869,15
588,39	7513,47
588,48	6264,92
588,56	5695,44
588,64	7066,48
588,72	6718,69
588,81	5942,67
588,89	6240,29
588,97	6480,28
589,06	8461,25
589,14	8221,93
589,22	6828,97
589,30	6161,65
589,39	5620,87
589,47	7498,56
589,55	9303,03
589,63	6718,47
589,72	5928,43
589,80	5803,46
589,88	7107,16
589,96	7843,64
590,05	6560,96
590,13	6687,96
590,21	8036,17
590,29	8686,33
590,38	7452,91
590,46	8256,28
590,54	5199,19
590,62	5622,90
590,71	7905,78
590,79	8390,74
590,87	5045,97
590,95	5397,15
591,03	6051,14
591,12	6725,92
591,20	5811,82
591,28	9243,82
591,36	6938,80
591,44	6053,85
591,53	6338,59
591,61	6151,70
591,69	5492,96
591,77	6604,80
591,85	6516,44
591,94	5487,54
592,02	5756,91
592,10	7564,09
592,18	7396,87
592,26	6183,11
592,34	5172,75
592,43	4832,87
592,51	5042,81
592,59	5479,63
592,67	7182,41
592,75	5545,39
592,84	6001,42
592,92	7655,84
593,00	5659,06
593,08	5756,91
593,16	5068,79
593,24	5492,96
593,32	7195,07
593,41	6378,14
593,49	4871,06
593,57	5467,65
593,65	5382,23
593,73	6579,94
593,81	6794,40
593,89	7639,57
593,98	5865,38
594,06	5150,37
594,14	5189,02
594,22	5483,25
594,30	5452,06
594,38	5797,36
594,46	7619,01
594,54	7437,77
594,62	7189,42
594,71	5873,07
594,79	5344,27
594,87	5929,79
594,95	6011,82
595,03	7624,43
595,11	6018,60
595,19	8749,15
595,27	5878,49
595,35	5311,72
595,43	5289,35
595,52	5513,08
595,60	5646,18
595,68	9368,57
595,76	4965,75
595,84	6866,03
595,92	5048,00
596,00	8172,44
596,08	7487,26
596,16	6171,59
596,24	5907,19
596,32	5539,97
596,40	6778,35
596,48	6781,29
596,56	6667,85
596,64	4999,19
596,73	7697,42
596,81	5311,05
596,89	6388,98
596,97	4635,81
597,05	11578,90
597,13	5617,71
597,21	4695,24
597,29	5587,88
597,37	7770,87
597,45	6590,34
597,53	5224,95
597,61	6179,72
597,69	6928,18
597,77	5734,99
597,85	5295,45
597,93	6012,50
598,01	5593,98
598,09	7134,05
598,17	5833,52
598,25	6062,67
598,33	4689,59
598,41	5455,45
598,49	4664,96
598,57	5060,21
598,65	5630,13
598,73	5913,74
598,81	7199,58
598,89	5702,67
598,97	4853,88
599,05	7842,05
599,13	5484,15
599,21	4977,72
599,29	6027,19
599,37	5513,53
599,45	5119,19
599,53	8310,74
599,61	5108,79
599,69	6392,15
599,77	5573,19
599,85	5006,87
599,93	5339,07
600,00	4767,78
600,08	6599,83
600,16	4384,97
600,24	4751,29
600,32	8183,29
600,40	8801,35
600,48	7733,13
600,56	7359,81
600,64	7341,50
600,72	5572,06
600,80	5820,19
600,88	5567,76
600,96	7440,71
601,04	4645,30
601,12	4998,51
601,19	4192,21
601,27	5156,70
601,35	5730,47
601,43	4932,53
601,51	5983,57
601,59	4970,26
601,67	4595,36
601,75	5143,37
601,83	5797,81
601,91	4398,30
601,98	4630,84
602,06	7196,19
602,14	5893,18
602,22	6270,80
602,30	6823,10
602,38	5818,15
602,46	4677,17
602,54	7236,87
602,61	6227,41
602,69	5942,89
602,77	4316,50
602,85	4652,53
602,93	4691,63
603,01	5676,23
603,09	7233,03
603,17	5085,74
603,24	6170,23
603,32	4369,60
603,40	5620,87
603,48	6405,48
603,56	4269,72
603,64	5573,19
603,71	4625,64
603,79	5423,36
603,87	6654,06
603,95	9602,69
604,03	5237,38
604,11	7024,90
604,18	5936,12
604,26	4773,89
604,34	4315,59
604,42	5839,85
604,50	4677,39
604,57	4680,78
604,65	5211,39
604,73	5347,43
604,81	5705,16
604,89	4559,20
604,96	5145,40
605,04	6115,09
605,12	5137,49
605,20	6540,17
605,28	7554,60
605,35	5539,06
605,43	5758,72
605,51	5033,31
605,59	6630,33
605,67	8765,42
605,74	5231,50
605,82	5542,45
605,90	4485,08
605,98	6280,96
606,05	5344,49
606,13	6277,12
606,21	5544,49
606,29	5115,35
606,36	5322,80
606,44	4705,64
606,52	5556,46
606,60	5142,24
606,67	4115,15
606,75	4822,47
606,83	3917,19
606,91	6589,88
606,98	4529,37
607,06	5359,86
607,14	5013,88
607,22	5003,71
607,29	4600,33
607,37	5344,72
607,45	6026,96
607,52	6365,26
607,60	6275,32
607,68	5204,83
607,76	5908,55
607,83	3873,80
607,91	6046,17
607,99	5797,36
608,06	5686,86
608,14	4838,06
608,22	5165,74
608,30	7240,71
608,37	4345,42
608,45	3721,48
608,53	5523,70
608,60	5578,16
608,68	4459,32
608,76	4874,00
608,83	6211,14
608,91	4261,36
608,99	6259,72
609,06	5577,48
609,14	6086,85
609,22	5010,49
609,29	4459,54
609,37	3994,02
609,45	6639,37
609,52	4314,46
609,60	4354,46
609,68	4531,63
609,75	5187,43
609,83	3739,34
609,91	8233,91
609,98	4790,16
610,06	4594,23
610,13	5943,57
610,21	5310,82
610,29	5306,53
610,36	3856,17
610,44	4533,89
610,52	5101,11
610,59	4148,82
610,67	4066,79
610,74	5073,99
610,82	4283,28
610,90	5560,53
610,97	4626,55
611,05	5827,19
611,13	5347,43
611,20	7566,81
611,28	4340,22
611,35	5008,00
611,43	3756,96
611,51	5554,43
611,58	5303,82
611,66	7190,09
611,73	4171,42
611,81	7002,08
611,88	5479,18
611,96	6117,35
612,04	4113,34
612,11	4064,30
612,19	7573,36
612,26	4671,29
612,34	5079,41
612,41	4815,69
612,49	3625,22
612,57	3704,31
612,64	4058,42
612,72	6959,59
612,79	8278,43
612,87	3690,52
612,94	3543,64
613,02	5108,11
613,09	4715,58
613,17	5695,90
613,24	4495,02
613,32	6222,21
613,40	4415,03
613,47	4736,37
613,55	3898,88
613,62	6399,15
613,70	6652,03
613,77	4225,20
613,85	6363,22
613,92	4697,28
614,00	3911,08
614,07	4449,60
614,15	3514,03
614,22	3845,10
614,30	5426,30
614,37	3829,73
614,45	4434,01
614,52	4031,08
614,60	4520,33
614,67	5976,11
614,75	3546,57
614,82	5564,60
614,90	4273,33
614,97	3853,46
615,05	7216,08
615,12	6037,81
615,20	4918,51
615,27	4881,91
615,34	4713,32
615,42	3900,69
615,49	4737,73
615,57	3705,89
615,64	3982,49
615,72	4236,05
615,79	4181,13
615,87	5360,54
615,94	6593,27
616,02	5095,46
616,09	6450,68
616,16	5331,61
616,24	4891,40
616,31	3805,10
616,39	7849,51
616,46	6319,38
616,54	5057,72
616,61	7443,19
616,68	3858,88
616,76	4583,38
616,83	5417,94
616,91	4156,50
616,98	3918,77
617,06	6219,95
617,13	4012,10
617,20	4224,75
617,28	4719,42
617,35	3743,86
617,43	6432,83
617,50	4170,74
617,57	4562,59
>>>>>End Processed Spectral Data<<<<<
