SpectraSuite Datei
++++++++++++++++++++++++++++++++++++
Datum: Sun Jan 04 05:49:48 CET 2004
Benutzer: H. Stützler
Dark-Spektrum vorhanden: Nein
Referenz-Spektrum vorhanden: Nein
Zahl der probierten Teilspektren: 1
Spektrometer: USB2+H04734
Integrationszeit (usec): 1000000 (USB2+H04734)
Spektren Durchschnitt berechnet: 10 (USB2+H04734)
Boxcar Glättung: 0 (USB2+H04734)
Dunkelstromkorrektur: Nein (USB2+H04734)
Puls/Lampe aktiviert: Nein (USB2+H04734)
Correct for Detector Non-linearity: Nein (USB2+H04734)
Streulichtkorrektur: Nein (USB2+H04734)
Anzahl Pixel in verarbeitetem Spektrum: 2048
>>>>>Begin Processed Spectral Data<<<<<
418,45	1239,52
418,57	1239,52
418,69	1239,52
418,80	1142,34
418,92	1133,53
419,04	1330,81
419,16	1205,39
419,28	1192,96
419,40	1173,08
419,52	1200,65
419,64	1164,49
419,75	1182,79
419,87	1196,58
419,99	1187,54
420,11	1190,03
420,23	1216,69
420,35	1251,72
420,47	1259,18
420,58	1222,34
420,70	1290,36
420,82	1285,39
420,94	1322,23
421,06	1369,68
421,18	1330,59
421,29	1319,51
421,41	1289,46
421,53	1349,57
421,65	1377,36
421,77	1399,51
421,89	1342,34
422,00	1458,04
422,12	1384,14
422,24	1369,46
422,36	1443,80
422,48	1427,99
422,59	1377,14
422,71	1427,53
422,83	1360,64
422,95	1366,97
423,07	1432,73
423,18	1481,54
423,30	1448,32
423,42	1391,15
423,54	1393,64
423,66	1370,13
423,77	1417,59
423,89	1396,12
424,01	1382,56
424,13	1378,95
424,25	1378,27
424,36	1412,39
424,48	1416,23
424,60	1376,46
424,72	1470,47
424,84	1388,44
424,95	1442,67
425,07	1415,78
425,19	1410,81
425,31	1397,25
425,42	1361,09
425,54	1407,87
425,66	1404,71
425,78	1369,00
425,89	1384,82
426,01	1363,35
426,13	1395,22
426,25	1425,27
426,36	1375,78
426,48	1400,64
426,60	1445,84
426,72	1398,83
426,83	1414,88
426,95	1396,12
427,07	1377,59
427,19	1488,32
427,30	1404,71
427,42	1340,98
427,54	1329,00
427,66	1365,16
427,77	1362,90
427,89	1395,44
428,01	1411,26
428,12	1415,78
428,24	1356,57
428,36	1351,38
428,48	1339,63
428,59	1362,00
428,71	1396,35
428,83	1340,76
428,94	1366,29
429,06	1364,03
429,18	1417,82
429,30	1392,05
429,41	1384,37
429,53	1444,03
429,65	1417,82
429,76	1410,81
429,88	1377,14
430,00	1402,67
430,11	1434,99
430,23	1363,58
430,35	1452,62
430,47	1368,33
430,58	1350,02
430,70	1432,50
430,82	1406,29
430,93	1546,63
431,05	1415,78
431,17	1390,92
431,28	1436,57
431,40	1373,98
431,52	1447,65
431,63	1344,15
431,75	1345,05
431,87	1376,01
431,98	1429,79
432,10	1408,78
432,22	1386,18
432,33	1445,61
432,45	1383,92
432,56	1407,42
432,68	1422,56
432,80	1380,53
432,91	1422,11
433,03	1397,48
433,15	1438,15
433,26	1410,58
433,38	1384,37
433,50	1342,11
433,61	1445,16
433,73	1449,23
433,84	1364,26
433,96	1375,56
434,08	1395,67
434,19	1371,26
434,31	1381,66
434,43	1395,44
434,54	1382,34
434,66	1366,29
434,77	1353,18
434,89	1425,27
435,01	1415,78
435,12	1361,55
435,24	1372,17
435,35	1370,36
435,47	1464,37
435,59	1393,41
435,70	1390,92
435,82	1392,05
435,93	1438,38
436,05	1386,40
436,17	1368,78
436,28	1399,51
436,40	1404,71
436,51	1357,93
436,63	1387,53
436,74	1425,05
436,86	1460,07
436,98	1613,74
437,09	1394,54
437,21	1412,17
437,32	1366,97
437,44	1427,08
437,55	1361,77
437,67	1752,95
437,79	1517,25
437,90	1425,73
438,02	1347,31
438,13	2200,62
438,25	1481,09
438,36	1433,86
438,48	1406,06
438,59	1428,21
438,71	1392,51
438,83	1388,44
438,94	1352,96
439,06	1442,00
439,17	1416,01
439,29	1383,69
439,40	1393,41
439,52	1366,29
439,63	1413,52
439,75	1359,29
439,86	1357,03
439,98	1399,06
440,09	1440,19
440,21	1380,98
440,32	1379,40
440,44	1357,70
440,55	1390,70
440,67	1388,21
440,78	1436,57
440,90	1358,16
441,01	1388,21
441,13	1360,87
441,24	1420,08
441,36	1475,67
441,47	1384,60
441,59	1420,75
441,70	1369,46
441,82	1435,67
441,93	1418,72
442,05	1358,38
442,16	1349,80
442,28	1372,85
442,39	1390,25
442,51	1432,28
442,62	1368,55
442,74	1451,49
442,85	1378,49
442,97	1478,38
443,08	1422,56
443,20	1436,12
443,31	1417,82
443,43	1386,86
443,54	1386,63
443,66	1361,32
443,77	1355,44
443,88	1358,61
444,00	1404,48
444,11	1427,31
444,23	1453,30
444,34	1362,90
444,46	1355,90
444,57	1459,17
444,69	1454,65
444,80	1406,74
444,91	1530,58
445,03	1340,08
445,14	1440,41
445,26	1334,88
445,37	1361,55
445,49	1395,22
445,60	1449,00
445,71	1483,58
445,83	1389,79
445,94	1368,78
446,06	1425,50
446,17	1358,61
446,29	1356,35
446,40	1389,34
446,51	1423,92
446,63	1401,09
446,74	1383,47
446,86	1387,08
446,97	1436,12
447,08	1365,84
447,20	1386,63
447,31	1357,70
447,43	1385,27
447,54	1402,00
447,65	1432,96
447,77	1359,96
447,88	1371,04
448,00	1408,10
448,11	1366,29
448,22	1366,52
448,34	1397,25
448,45	1368,33
448,56	1379,85
448,68	1416,01
448,79	1447,42
448,90	1442,45
449,02	1382,79
449,13	1386,40
449,25	1413,52
449,36	1367,65
449,47	1395,22
449,59	1477,02
449,70	1382,11
449,81	1365,84
449,93	1375,11
450,04	1365,61
450,15	1365,61
450,27	1370,59
450,38	1400,19
450,49	1378,49
450,61	1472,96
450,72	1396,12
450,83	1449,45
450,95	1399,96
451,06	1423,69
451,17	1474,76
451,29	1407,65
451,40	1377,59
451,51	1358,16
451,63	1353,86
451,74	1442,45
451,85	1378,04
451,97	1437,93
452,08	1389,57
452,19	1373,30
452,31	1445,84
452,42	1389,34
452,53	1447,19
452,65	1436,12
452,76	1367,42
452,87	1345,05
452,98	1365,39
453,10	1392,28
453,21	1366,07
453,32	1357,25
453,44	1363,81
453,55	1359,29
453,66	1537,59
453,77	1418,72
453,89	1431,15
454,00	1458,49
454,11	1402,90
454,23	1401,77
454,34	1412,84
454,45	1354,99
454,56	1429,34
454,68	1476,80
454,79	1373,98
454,90	1405,39
455,01	1345,73
455,13	1378,95
455,24	1451,49
455,35	1364,48
455,46	1331,26
455,58	1345,73
455,69	1460,53
455,80	1411,04
455,91	1341,21
456,03	1378,95
456,14	1427,31
456,25	1363,13
456,36	1356,57
456,48	1390,25
456,59	1450,81
456,70	1358,83
456,81	1427,08
456,92	1477,93
457,04	1424,82
457,15	1526,51
457,26	1358,38
457,37	1379,40
457,49	1362,68
457,60	1379,40
457,71	1390,47
457,82	1428,89
457,93	1373,30
458,05	1451,94
458,16	1363,13
458,27	1386,86
458,38	1402,67
458,49	1407,19
458,61	1393,86
458,72	1385,50
458,83	1369,91
458,94	1409,68
459,05	1424,60
459,17	1658,94
459,28	1377,36
459,39	1379,62
459,50	1368,78
459,61	1411,71
459,72	1359,51
459,84	1347,99
459,95	1370,59
460,06	1619,62
460,17	1372,17
460,28	1395,44
460,39	1399,29
460,51	1416,46
460,62	1390,02
460,73	1372,62
460,84	1351,15
460,95	1459,40
461,06	1493,52
461,18	1466,40
461,29	1439,28
461,40	1390,02
461,51	1403,58
461,62	1529,90
461,73	1393,64
461,84	1402,90
461,96	1406,52
462,07	1426,40
462,18	1386,18
462,29	1389,12
462,40	1444,03
462,51	1381,88
462,62	1465,50
462,73	1474,76
462,85	1426,18
462,96	1424,82
463,07	1447,42
463,18	1488,32
463,29	1400,64
463,40	1391,83
463,51	1359,51
463,62	1360,64
463,73	1416,69
463,85	1377,59
463,96	1388,66
464,07	1413,07
464,18	1390,47
464,29	1360,64
464,40	1475,22
464,51	1407,42
464,62	1386,40
464,73	1360,64
464,84	1401,55
464,95	1386,86
465,06	1408,10
465,18	1369,91
465,29	1393,86
465,40	1388,89
465,51	1380,98
465,62	1438,83
465,73	1375,33
465,84	1409,23
465,95	1418,49
466,06	1359,51
466,17	1377,59
466,28	1406,97
466,39	1448,10
466,50	1364,48
466,61	1308,21
466,72	1383,92
466,83	1356,57
466,95	1360,19
467,06	1350,02
467,17	1374,20
467,28	1353,41
467,39	1402,67
467,50	1423,24
467,61	1357,70
467,72	1362,45
467,83	1361,77
467,94	1407,87
468,05	1347,31
468,16	1371,72
468,27	1373,30
468,38	1350,02
468,49	1463,24
468,60	1361,77
468,71	1432,50
468,82	1447,65
468,93	1431,15
469,04	1459,85
469,15	1385,73
469,26	1370,36
469,37	1393,86
469,48	1440,41
469,59	1402,90
469,70	1353,64
469,81	1381,21
469,92	1352,51
470,03	1421,66
470,14	1359,96
470,25	1432,50
470,36	1403,80
470,47	1368,10
470,58	1372,17
470,69	1432,50
470,80	1437,25
470,91	1351,15
471,02	1354,99
471,13	1395,22
471,24	1394,77
471,35	1370,36
471,46	1465,05
471,56	1426,18
471,67	1444,03
471,78	1468,44
471,89	1362,00
472,00	1362,45
472,11	1410,81
472,22	1436,80
472,33	1380,98
472,44	1387,99
472,55	1369,46
472,66	1378,72
472,77	1367,42
472,88	1503,92
472,99	1438,61
473,10	1358,16
473,21	1378,72
473,32	1384,60
473,42	1352,51
473,53	1357,25
473,64	1415,10
473,75	1396,80
473,86	1394,09
473,97	1411,71
474,08	1414,20
474,19	1449,91
474,30	1507,98
474,41	1430,24
474,52	1368,55
474,62	1399,96
474,73	1342,79
474,84	1498,72
474,95	1411,04
475,06	1411,49
475,17	1366,52
475,28	1341,66
475,39	1382,79
475,50	1356,80
475,60	1333,52
475,71	1344,37
475,82	1430,70
475,93	1362,45
476,04	1443,13
476,15	1389,34
476,26	1381,21
476,37	1369,68
476,47	1372,85
476,58	1341,89
476,69	1333,98
476,80	1347,08
476,91	1388,21
477,02	1399,29
477,13	1391,15
477,23	1373,07
477,34	1403,58
477,45	1425,95
477,56	1369,46
477,67	1384,60
477,78	1405,16
477,89	1378,27
477,99	1393,64
478,10	1422,34
478,21	1401,77
478,32	1395,90
478,43	1378,49
478,54	1477,93
478,64	1430,02
478,75	1386,63
478,86	1367,20
478,97	1398,38
479,08	1372,62
479,18	1400,42
479,29	1370,81
479,40	1366,07
479,51	1346,41
479,62	1378,72
479,72	1347,99
479,83	1358,16
479,94	1427,08
480,05	1409,23
480,16	1354,09
480,26	1393,18
480,37	1360,19
480,48	1440,87
480,59	1408,78
480,70	1364,94
480,80	1386,63
480,91	1371,94
481,02	1361,09
481,13	1407,87
481,24	1394,99
481,34	1376,46
481,45	1483,58
481,56	1354,09
481,67	1379,17
481,77	1358,61
481,88	1378,95
481,99	1423,24
482,10	1399,51
482,20	1693,06
482,31	1386,18
482,42	1403,58
482,53	1365,16
482,63	1447,19
482,74	1415,56
482,85	1365,61
482,96	1347,54
483,06	1348,44
483,17	1414,88
483,28	1354,77
483,39	1395,22
483,49	1414,65
483,60	1513,41
483,71	1372,17
483,81	1427,99
483,92	1389,57
484,03	1380,53
484,14	1346,41
484,24	1386,18
484,35	1377,82
484,46	1390,70
484,57	1362,68
484,67	1389,12
484,78	1365,84
484,89	1490,36
484,99	1372,85
485,10	1365,61
485,21	1397,70
485,31	1399,74
485,42	1406,52
485,53	1382,11
485,63	1390,70
485,74	1462,79
485,85	1535,33
485,96	2019,83
486,06	1397,48
486,17	1401,32
486,28	1418,27
486,38	1351,38
486,49	1427,53
486,60	1339,40
486,70	1365,16
486,81	1368,33
486,92	1340,30
487,02	1350,47
487,13	1322,23
487,24	1380,98
487,34	1371,49
487,45	1481,99
487,56	1374,20
487,66	1341,66
487,77	1393,18
487,87	1358,38
487,98	1338,04
488,09	1367,42
488,19	1332,17
488,30	1489,00
488,41	1360,87
488,51	1339,85
488,62	1325,39
488,73	1351,60
488,83	1399,06
488,94	1419,17
489,04	1470,92
489,15	1348,67
489,26	1347,76
489,36	1401,77
489,47	1387,08
489,58	1333,75
489,68	1411,26
489,79	1355,22
489,89	1404,48
490,00	1384,82
490,11	1381,66
490,21	1395,67
490,32	1352,05
490,42	1400,42
490,53	1385,73
490,64	1354,54
490,74	1364,26
490,85	1348,44
490,95	1418,49
491,06	1389,34
491,16	1364,94
491,27	1421,88
491,38	1364,94
491,48	1481,32
491,59	1459,85
491,69	1407,19
491,80	1350,25
491,90	1446,97
492,01	1342,34
492,12	1405,39
492,22	1375,33
492,33	1437,70
492,43	1372,62
492,54	1369,46
492,64	1364,94
492,75	1392,05
492,86	1398,38
492,96	1357,25
493,07	1365,16
493,17	1377,59
493,28	1402,45
493,38	1406,29
493,49	1353,41
493,59	1392,73
493,70	1381,66
493,80	1366,07
493,91	1340,08
494,01	1350,70
494,12	1348,21
494,22	1430,02
494,33	1463,24
494,43	1460,98
494,54	1496,01
494,64	1406,29
494,75	1366,97
494,86	1437,48
494,96	1376,46
495,07	1354,77
495,17	1442,90
495,28	1388,44
495,38	1342,56
495,49	1377,82
495,59	1411,04
495,69	1368,78
495,80	1464,59
495,90	1373,07
496,01	1339,85
496,11	1406,29
496,22	1366,52
496,32	1362,68
496,43	1424,14
496,53	1372,85
496,64	1363,13
496,74	1377,36
496,85	1413,30
496,95	1386,63
497,06	1354,77
497,16	1401,77
497,27	1383,92
497,37	1443,80
497,48	1333,75
497,58	1350,02
497,68	1364,03
497,79	1416,46
497,89	1376,01
498,00	1383,92
498,10	1346,63
498,21	1436,80
498,31	1356,12
498,42	1342,11
498,52	1439,28
498,62	1378,27
498,73	1380,75
498,83	1400,87
498,94	1358,83
499,04	1442,90
499,15	1382,79
499,25	1346,41
499,35	1413,30
499,46	1473,63
499,56	1504,37
499,67	1419,17
499,77	1329,46
499,87	1359,96
499,98	1357,70
500,08	1336,91
500,19	1348,21
500,29	1378,04
500,39	1413,30
500,50	1430,70
500,60	1376,69
500,71	1367,42
500,81	1375,56
500,91	1349,80
501,02	1368,78
501,12	1419,17
501,22	1356,57
501,33	1376,69
501,43	1409,00
501,54	1360,64
501,64	1359,06
501,74	1373,07
501,85	1427,99
501,95	1354,31
502,05	1358,16
502,16	1366,29
502,26	1471,60
502,37	1407,19
502,47	1384,37
502,57	1355,22
502,68	1374,43
502,78	1344,60
502,88	1437,70
502,99	1392,96
503,09	1429,34
503,19	1356,80
503,30	1335,11
503,40	1343,47
503,50	1350,92
503,61	1402,00
503,71	1374,20
503,81	1377,36
503,92	1394,31
504,02	1424,14
504,12	1561,54
504,23	1446,06
504,33	1379,62
504,43	1373,98
504,54	1404,93
504,64	1439,51
504,74	1582,33
504,84	1376,46
504,95	1366,52
505,05	1344,37
505,15	1460,53
505,26	1351,15
505,36	1382,11
505,46	1369,46
505,56	1392,05
505,67	1369,00
505,77	1394,31
505,87	1354,09
505,98	1346,86
506,08	1355,90
506,18	1352,73
506,28	1364,26
506,39	1390,92
506,49	1376,01
506,59	1360,64
506,70	1341,66
506,80	1377,59
506,90	1473,18
507,00	1353,86
507,11	1403,13
507,21	1417,59
507,31	1400,64
507,41	1397,93
507,52	1353,64
507,62	1374,65
507,72	1437,48
507,82	1395,67
507,93	1371,49
508,03	1433,18
508,13	1392,05
508,23	1385,27
508,34	1399,74
508,44	1360,87
508,54	1352,51
508,64	1381,66
508,74	1350,92
508,85	1341,21
508,95	1387,31
509,05	1336,91
509,15	1370,36
509,26	1388,44
509,36	1355,90
509,46	1386,63
509,56	1349,80
509,66	1364,71
509,77	1352,96
509,87	1370,59
509,97	1390,47
510,07	1388,44
510,17	1350,47
510,28	1514,54
510,38	1421,88
510,48	1367,20
510,58	1418,95
510,68	1369,68
510,78	1375,78
510,89	1379,40
510,99	1334,20
511,09	1427,31
511,19	1387,31
511,29	1360,64
511,39	1428,44
511,50	1435,44
511,60	1358,83
511,70	1397,03
511,80	1416,23
511,90	1413,97
512,00	1375,33
512,11	1360,87
512,21	1391,15
512,31	1359,51
512,41	1462,33
512,51	1404,03
512,61	1505,72
512,71	1356,12
512,82	1346,63
512,92	1330,36
513,02	1414,43
513,12	1340,98
513,22	1369,46
513,32	1411,71
513,42	1374,65
513,53	1459,85
513,63	1408,55
513,73	1418,72
513,83	1357,25
513,93	1399,74
514,03	1416,69
514,13	1458,49
514,23	1363,58
514,33	1374,43
514,44	1348,44
514,54	1358,38
514,64	1484,48
514,74	1373,75
514,84	1366,07
514,94	1419,62
515,04	1423,69
515,14	1408,10
515,24	1399,74
515,34	1405,39
515,44	1356,12
515,55	1347,99
515,65	1422,34
515,75	1362,00
515,85	1376,69
515,95	1410,36
516,05	1466,85
516,15	1400,64
516,25	1329,68
516,35	1354,09
516,45	1381,88
516,55	1349,34
516,65	1365,39
516,75	1502,33
516,85	1421,43
516,95	1417,14
517,05	1441,77
517,16	1361,55
517,26	1522,45
517,36	1371,26
517,46	1330,36
517,56	1406,52
517,66	1378,49
517,76	1370,81
517,86	1377,36
517,96	1387,99
518,06	1364,03
518,16	1342,56
518,26	1378,49
518,36	1363,13
518,46	1376,69
518,56	1418,49
518,66	1452,39
518,76	1406,29
518,86	1417,14
518,96	1359,51
519,06	1378,04
519,16	1417,82
519,26	1413,97
519,36	1424,82
519,46	1392,28
519,56	1459,17
519,66	1506,63
519,76	1356,80
519,86	1359,74
519,96	1389,34
520,06	1369,23
520,16	1461,88
520,26	1381,21
520,36	1343,92
520,46	1375,11
520,56	1366,97
520,66	1378,04
520,76	1382,11
520,86	1379,85
520,96	1446,74
521,06	1402,67
521,16	1356,35
521,26	1381,43
521,35	1416,01
521,45	1338,72
521,55	1368,55
521,65	1398,38
521,75	1374,43
521,85	1354,54
521,95	1375,56
522,05	1350,47
522,15	1360,64
522,25	1748,88
522,35	1420,98
522,45	1384,14
522,55	1423,69
522,65	1377,59
522,75	1347,31
522,85	1362,90
522,94	1354,99
523,04	1401,09
523,14	1407,19
523,24	1343,69
523,34	1363,81
523,44	1360,87
523,54	1337,14
523,64	1367,20
523,74	1462,79
523,84	1397,70
523,94	1397,48
524,03	1357,25
524,13	1404,26
524,23	1378,04
524,33	1375,33
524,43	1365,84
524,53	1371,04
524,63	1357,70
524,73	1355,22
524,83	1333,98
524,92	1363,81
525,02	1324,71
525,12	1402,00
525,22	1392,73
525,32	1355,67
525,42	1430,92
525,52	1377,59
525,61	1404,03
525,71	1342,79
525,81	1391,83
525,91	1335,56
526,01	1400,87
526,11	1405,61
526,21	1405,84
526,30	1374,43
526,40	1380,53
526,50	1397,25
526,60	1440,19
526,70	1433,41
526,80	1410,81
526,89	1356,35
526,99	1348,44
527,09	1388,66
527,19	1393,41
527,29	1417,14
527,39	1386,86
527,48	1385,05
527,58	1401,09
527,68	1361,55
527,78	1417,82
527,88	1485,38
527,97	1366,07
528,07	1323,13
528,17	1435,89
528,27	1445,84
528,37	1376,24
528,46	1353,41
528,56	1488,10
528,66	1411,49
528,76	1347,31
528,86	1408,55
528,95	1353,41
529,05	1376,24
529,15	1395,67
529,25	1418,95
529,35	1425,95
529,44	1416,23
529,54	1453,30
529,64	1402,67
529,74	1386,40
529,83	1333,07
529,93	1341,89
530,03	1397,93
530,13	1397,03
530,22	1479,74
530,32	1437,48
530,42	1413,30
530,52	1337,82
530,61	1434,99
530,71	1351,15
530,81	1423,69
530,91	1393,41
531,00	1375,33
531,10	1387,76
531,20	1414,88
531,30	1396,12
531,39	1458,04
531,49	1493,07
531,59	1790,24
531,69	1691,03
531,78	1616,00
531,88	1681,31
531,98	1649,45
532,07	1572,39
532,17	1557,25
532,27	1535,55
532,37	1427,76
532,46	1433,18
532,56	1413,97
532,66	1353,86
532,75	1393,86
532,85	1382,56
532,95	1357,70
533,04	1379,85
533,14	1401,09
533,24	1420,98
533,34	1353,86
533,43	1414,88
533,53	1336,91
533,63	1403,13
533,72	1383,01
533,82	1373,75
533,92	1358,16
534,01	1536,91
534,11	1547,30
534,21	1408,32
534,30	1365,61
534,40	1373,30
534,50	1358,38
534,59	1361,77
534,69	1353,86
534,79	1392,05
534,88	1434,76
534,98	1418,49
535,08	1349,80
535,17	1419,62
535,27	1383,69
535,36	1364,48
535,46	1405,61
535,56	1355,67
535,65	1406,74
535,75	1424,60
535,85	1395,22
535,94	1373,30
536,04	1389,57
536,14	1397,03
536,23	1443,13
536,33	1380,75
536,42	1406,29
536,52	1388,44
536,62	1330,13
536,71	1396,35
536,81	1385,73
536,90	1384,14
537,00	1385,05
537,10	1353,86
537,19	1380,75
537,29	1411,49
537,38	1433,18
537,48	1380,98
537,58	1384,82
537,67	1345,73
537,77	1377,82
537,86	1376,46
537,96	1453,52
538,06	1363,13
538,15	1358,83
538,25	1463,24
538,34	1505,27
538,44	1461,88
538,53	1403,80
538,63	1447,42
538,73	1412,62
538,82	1390,70
538,92	1354,99
539,01	1499,17
539,11	1343,92
539,20	1502,33
539,30	1415,10
539,39	1360,87
539,49	1409,00
539,59	1420,98
539,68	1537,59
539,78	1517,70
539,87	1451,49
539,97	1434,09
540,06	1430,47
540,16	1380,30
540,25	1430,24
540,35	1491,26
540,44	1421,66
540,54	1497,36
540,63	1412,17
540,73	1399,74
540,82	1447,42
540,92	1402,90
541,01	1480,87
541,11	1463,69
541,20	1434,99
541,30	1445,61
541,39	1463,69
541,49	1443,80
541,58	1509,34
541,68	1495,55
541,77	1441,54
541,87	1386,86
541,96	1389,34
542,06	1478,15
542,15	1444,03
542,25	1592,73
542,34	1463,92
542,44	1421,43
542,53	1422,11
542,63	1443,80
542,72	1413,30
542,82	1431,60
542,91	1423,01
543,01	1420,08
543,10	1461,43
543,20	1435,89
543,29	1446,06
543,38	1402,90
543,48	1425,73
543,57	1411,26
543,67	1381,21
543,76	1429,79
543,86	1410,58
543,95	1454,65
544,05	1517,93
544,14	1552,05
544,23	1450,36
544,33	1419,85
544,42	1450,13
544,52	1422,79
544,61	1427,99
544,71	1509,56
544,80	1536,46
544,89	1529,45
544,99	1483,35
545,08	1538,94
545,18	1412,84
545,27	1588,43
545,36	1562,44
545,46	1505,27
545,55	1449,91
545,65	1473,18
545,74	1421,88
545,84	1413,07
545,93	1455,55
546,02	1419,62
546,12	1478,61
546,21	1461,66
546,30	1455,10
546,40	1482,67
546,49	1409,23
546,59	1463,24
546,68	1430,02
546,77	1466,63
546,87	1450,36
546,96	1505,27
547,05	1439,51
547,15	1408,10
547,24	1456,01
547,34	1418,27
547,43	1461,66
547,52	1481,32
547,62	1442,67
547,71	1472,50
547,80	1468,66
547,90	1440,19
547,99	1524,03
548,08	1469,11
548,18	1406,74
548,27	1395,90
548,36	1396,12
548,46	1393,41
548,55	1425,95
548,64	1434,09
548,74	1403,35
548,83	1425,27
548,92	1511,60
549,02	1421,21
549,11	1571,71
549,20	1480,19
549,30	1415,78
549,39	1437,25
549,48	1444,03
549,58	1395,44
549,67	1457,36
549,76	1452,17
549,85	1410,13
549,95	1420,08
550,04	1472,28
550,13	1402,00
550,23	1493,29
550,32	1418,72
550,41	1409,00
550,50	1432,28
550,60	1509,34
550,69	1434,76
550,78	1391,60
550,88	1460,53
550,97	1454,65
551,06	1409,00
551,15	1446,52
551,25	1538,04
551,34	1417,59
551,43	1430,47
551,52	1469,57
551,62	1485,61
551,71	1486,74
551,80	1475,22
551,89	1470,02
551,99	1446,74
552,08	1436,57
552,17	1404,48
552,26	1467,53
552,36	1403,80
552,45	1397,25
552,54	1378,95
552,63	1456,68
552,73	1534,65
552,82	1534,65
552,91	1452,17
553,00	1586,62
553,10	1441,77
553,19	1542,56
553,28	1424,37
553,37	1441,77
553,46	1384,82
553,56	1471,37
553,65	1419,40
553,74	1396,12
553,83	1451,71
553,92	1414,43
554,02	1443,35
554,11	1419,40
554,20	1406,52
554,29	1557,70
554,38	1425,27
554,48	1433,41
554,57	1420,53
554,66	1420,08
554,75	1486,97
554,84	1462,79
554,94	1471,37
555,03	1413,30
555,12	1390,02
555,21	1399,96
555,30	1541,20
555,39	1389,34
555,49	1408,55
555,58	1451,94
555,67	1465,95
555,76	1488,10
555,85	1396,80
555,94	1412,39
556,03	1433,86
556,13	1452,39
556,22	1424,82
556,31	1437,93
556,40	1394,99
556,49	1497,81
556,58	1453,97
556,67	1438,15
556,77	1444,03
556,86	1521,32
556,95	1470,47
557,04	1529,90
557,13	1514,99
557,22	1492,84
557,31	1463,46
557,40	1451,71
557,50	1536,00
557,59	1419,40
557,68	1425,50
557,77	1516,34
557,86	1456,01
557,95	1427,31
558,04	1449,23
558,13	1431,60
558,22	1460,53
558,31	1440,19
558,41	1398,83
558,50	1484,25
558,59	1466,40
558,68	1502,79
558,77	1479,96
558,86	1407,65
558,95	1401,77
559,04	1445,61
559,13	1507,76
559,22	1418,95
559,31	1433,63
559,40	1427,76
559,49	1443,13
559,59	1479,06
559,68	1402,90
559,77	1527,64
559,86	1545,04
559,95	1446,52
560,04	1418,72
560,13	1460,07
560,22	1585,50
560,31	1468,66
560,40	1474,54
560,49	1382,34
560,58	1426,40
560,67	1406,74
560,76	1405,61
560,85	1387,99
560,94	1503,01
561,03	1430,02
561,12	1620,30
561,21	1579,85
561,30	1446,97
561,39	1453,97
561,48	1449,45
561,57	1367,42
561,66	1478,83
561,75	1563,57
561,84	1431,15
561,93	1436,80
562,02	1448,10
562,11	1402,00
562,20	1406,06
562,29	1425,95
562,38	1387,53
562,47	1503,01
562,56	1451,04
562,65	1431,15
562,74	1441,09
562,83	1611,26
562,92	1483,80
563,01	1540,07
563,10	1413,75
563,19	1435,67
563,28	1649,67
563,37	1536,00
563,46	1401,32
563,55	1418,95
563,64	1611,03
563,73	1420,30
563,82	1463,69
563,91	1548,66
564,00	1443,80
564,09	1411,94
564,18	1477,93
564,27	1387,31
564,35	1486,06
564,44	1456,01
564,53	1484,93
564,62	1488,10
564,71	1467,76
564,80	1478,15
564,89	1496,91
564,98	2943,65
565,07	1548,21
565,16	1400,19
565,25	1736,00
565,34	1449,91
565,43	1445,16
565,51	1453,97
565,60	1525,38
565,69	1409,23
565,78	1539,39
565,87	1392,73
565,96	1378,95
566,05	1499,62
566,14	1523,12
566,23	1462,56
566,32	1558,83
566,40	1514,99
566,49	1505,50
566,58	1437,48
566,67	1462,79
566,76	1407,65
566,85	1419,17
566,94	1439,06
567,03	1473,86
567,11	1439,06
567,20	1444,93
567,29	1551,37
567,38	1470,24
567,47	1398,83
567,56	1451,49
567,65	1456,23
567,73	1414,43
567,82	1424,14
567,91	1472,96
568,00	1441,09
568,09	1566,74
568,18	1434,31
568,27	1444,26
568,35	1458,27
568,44	1491,71
568,53	1479,74
568,62	1402,45
568,71	1388,66
568,80	1432,96
568,88	1477,02
568,97	1536,00
569,06	1420,30
569,15	1412,17
569,24	1486,51
569,32	1480,64
569,41	1469,11
569,50	1393,18
569,59	1386,18
569,68	1394,77
569,76	1452,84
569,85	1476,57
569,94	1497,59
570,03	1446,06
570,12	1494,20
570,20	1467,76
570,29	1487,87
570,38	1455,10
570,47	1458,04
570,56	1406,29
570,64	1422,79
570,73	1436,35
570,82	1518,15
570,91	1497,36
570,99	1406,97
571,08	1391,60
571,17	1427,53
571,26	1508,66
571,34	1452,39
571,43	1459,40
571,52	1483,12
571,61	1402,22
571,69	1399,96
571,78	1503,24
571,87	1500,30
571,96	1485,38
572,04	1519,96
572,13	1486,06
572,22	1410,58
572,31	1404,93
572,39	1416,46
572,48	1466,85
572,57	1426,18
572,66	1425,95
572,74	1409,23
572,83	1455,55
572,92	1437,48
573,00	1416,01
573,09	1488,10
573,18	1504,37
573,27	1479,96
573,35	1417,36
573,44	1405,84
573,53	1466,63
573,61	1445,61
573,70	1466,85
573,79	1425,05
573,87	1537,13
573,96	1429,57
574,05	1419,17
574,14	1437,93
574,22	1404,26
574,31	1492,16
574,40	1402,67
574,48	1424,60
574,57	1451,26
574,66	1431,83
574,74	1454,88
574,83	1509,11
574,92	1512,95
575,00	1444,26
575,09	1510,47
575,18	1420,53
575,26	1527,87
575,35	1435,89
575,43	1409,68
575,52	1485,16
575,61	1467,08
575,69	1491,26
575,78	1435,89
575,87	1553,63
575,95	1486,51
576,04	1424,14
576,13	1470,24
576,21	1416,69
576,30	1466,63
576,38	1453,52
576,47	1425,95
576,56	1430,70
576,64	1437,93
576,73	1507,98
576,82	1479,06
576,90	1434,09
576,99	1452,39
577,07	1431,37
577,16	1449,68
577,25	1485,38
577,33	1579,85
577,42	1464,14
577,50	1415,10
577,59	1471,37
577,68	1508,66
577,76	1445,39
577,85	1445,39
577,93	1468,66
578,02	1459,85
578,10	1465,27
578,19	1430,02
578,28	1436,57
578,36	1448,10
578,45	1468,66
578,53	1427,08
578,62	1406,52
578,70	1426,18
578,79	1451,26
578,88	1465,27
578,96	1415,33
579,05	1412,62
579,13	1548,66
579,22	1463,01
579,30	1432,05
579,39	1455,33
579,47	1547,08
579,56	1443,13
579,64	1695,32
579,73	1459,62
579,82	1483,35
579,90	1429,57
579,99	1437,25
580,07	1469,79
580,16	1453,07
580,24	1472,50
580,33	1410,36
580,41	1444,71
580,50	1400,19
580,58	1461,66
580,67	1434,99
580,75	1443,35
580,84	1438,15
580,92	1404,03
581,01	1564,25
581,09	1421,21
581,18	1435,89
581,26	1409,91
581,35	1387,99
581,43	1504,14
581,52	1461,43
581,60	1476,35
581,69	1446,52
581,77	1467,76
581,86	1467,76
581,94	1446,97
582,02	1463,92
582,11	1435,44
582,19	1531,26
582,28	1584,14
582,36	1554,99
582,45	1553,41
582,53	1414,20
582,62	1444,03
582,70	1420,08
582,79	1471,37
582,87	1415,56
582,96	1460,75
583,04	1521,77
583,12	1474,99
583,21	1448,10
583,29	1479,51
583,38	1469,57
583,46	1440,87
583,55	1472,05
583,63	1400,19
583,71	1486,51
583,80	1456,68
583,88	1420,75
583,97	1577,81
584,05	1483,12
584,13	1477,25
584,22	1462,33
584,30	1442,45
584,39	1482,45
584,47	1495,10
584,55	1418,95
584,64	1470,02
584,72	1471,37
584,81	1392,05
584,89	1418,49
584,97	1427,76
585,06	1396,57
585,14	1453,52
585,23	1475,89
585,31	1406,74
585,39	1437,48
585,48	1469,34
585,56	1425,73
585,64	1482,45
585,73	1449,23
585,81	1428,44
585,90	1474,09
585,98	1427,08
586,06	1450,58
586,15	1510,69
586,23	1409,68
586,31	1439,96
586,40	1416,69
586,48	1533,29
586,56	1409,00
586,65	1390,02
586,73	1422,79
586,81	1468,66
586,90	1441,77
586,98	1378,04
587,06	1406,52
587,15	1443,58
587,23	1449,45
587,31	1444,93
587,40	1431,15
587,48	1402,22
587,56	1514,99
587,65	1585,27
587,73	1491,26
587,81	1458,04
587,90	1546,17
587,98	1454,20
588,06	1429,57
588,14	1402,67
588,23	1426,86
588,31	1515,67
588,39	1489,90
588,48	1441,77
588,56	1410,36
588,64	1446,97
588,72	1473,63
588,81	1423,47
588,89	1424,82
588,97	1445,16
589,06	1507,98
589,14	1526,29
589,22	1458,94
589,30	1445,39
589,39	1410,81
589,47	1507,76
589,55	1544,14
589,63	1462,56
589,72	1451,71
589,80	1427,99
589,88	1468,21
589,96	1504,82
590,05	1461,43
590,13	1480,19
590,21	1505,72
590,29	1512,28
590,38	1482,22
590,46	1496,23
590,54	1403,13
590,62	1435,22
590,71	1498,94
590,79	1527,64
590,87	1407,65
590,95	1417,82
591,03	1449,45
591,12	1460,30
591,20	1435,67
591,28	1542,78
591,36	1465,50
591,44	1434,76
591,53	1461,43
591,61	1451,49
591,69	1429,57
591,77	1449,91
591,85	1447,42
591,94	1411,26
592,02	1442,22
592,10	1480,19
592,18	1508,43
592,26	1461,43
592,34	1405,84
592,43	1410,13
592,51	1400,87
592,59	1407,87
592,67	1429,79
592,75	1436,12
592,84	1448,32
592,92	1494,42
593,00	1439,06
593,08	1428,21
593,16	1405,84
593,24	1425,95
593,32	1483,80
593,41	1449,23
593,49	1392,96
593,57	1424,82
593,65	1421,43
593,73	1475,22
593,81	1470,24
593,89	1484,71
593,98	1437,93
594,06	1413,75
594,14	1420,53
594,22	1390,92
594,30	1434,76
594,38	1424,14
594,46	1497,14
594,54	1494,88
594,62	1474,54
594,71	1418,27
594,79	1419,40
594,87	1416,69
594,95	1435,67
595,03	1526,06
595,11	1435,89
595,19	1534,65
595,27	1428,66
595,35	1429,34
595,43	1413,97
595,52	1429,34
595,60	1408,32
595,68	1552,95
595,76	1431,15
595,84	1489,23
595,92	1426,18
596,00	1522,22
596,08	1499,40
596,16	1433,41
596,24	1415,56
596,32	1426,18
596,40	1473,41
596,48	1451,04
596,56	1465,50
596,64	1403,35
596,73	1445,39
596,81	1444,93
596,89	1467,76
596,97	1369,23
597,05	1639,96
597,13	1430,02
597,21	1406,06
597,29	1436,80
597,37	1522,90
597,45	1462,11
597,53	1417,59
597,61	1429,11
597,69	1493,52
597,77	1465,95
597,85	1423,69
597,93	1434,99
598,01	1421,88
598,09	1484,71
598,17	1442,00
598,25	1448,10
598,33	1407,19
598,41	1445,16
598,49	1398,61
598,57	1414,43
598,65	1426,86
598,73	1434,09
598,81	1458,27
598,89	1433,41
598,97	1428,89
599,05	1498,94
599,13	1431,83
599,21	1397,93
599,29	1448,78
599,37	1435,22
599,45	1404,48
599,53	1538,49
599,61	1430,02
599,69	1451,26
599,77	1421,21
599,85	1429,34
599,93	1418,72
600,00	1389,34
600,08	1460,30
600,16	1415,10
600,24	1400,87
600,32	1531,03
600,40	1553,86
600,48	1512,05
600,56	1487,19
600,64	1486,29
600,72	1431,83
600,80	1449,00
600,88	1458,04
600,96	1528,55
601,04	1406,29
601,12	1433,63
601,19	1399,29
601,27	1415,33
601,35	1424,82
601,43	1422,56
601,51	1457,36
601,59	1430,47
601,67	1396,35
601,75	1399,96
601,83	1436,35
601,91	1403,13
601,98	1413,75
602,06	1478,15
602,14	1465,72
602,22	1459,85
602,30	1471,83
602,38	1476,80
602,46	1407,42
602,54	1488,32
602,61	1466,85
602,69	1453,07
602,77	1395,67
602,85	1419,85
602,93	1392,28
603,01	1449,91
603,09	1491,49
603,17	1421,66
603,24	1465,05
603,32	1399,29
603,40	1458,72
603,48	1473,63
603,56	1398,61
603,64	1367,65
603,71	1397,25
603,79	1433,86
603,87	1461,43
603,95	1580,98
604,03	1439,51
604,11	1500,98
604,18	1439,06
604,26	1416,23
604,34	1387,08
604,42	1460,53
604,50	1389,79
604,57	1418,49
604,65	1443,13
604,73	1417,59
604,81	1442,45
604,89	1383,92
604,96	1427,99
605,04	1465,72
605,12	1427,99
605,20	1478,61
605,28	1503,46
605,35	1434,31
605,43	1452,62
605,51	1431,60
605,59	1485,84
605,67	1531,94
605,74	1414,88
605,82	1444,93
605,90	1395,22
605,98	1475,44
606,05	1437,70
606,13	1462,56
606,21	1446,97
606,29	1409,23
606,36	1436,57
606,44	1392,28
606,52	1426,40
606,60	1435,22
606,67	1374,43
606,75	1411,26
606,83	1367,87
606,91	1463,01
606,98	1396,80
607,06	1418,27
607,14	1410,81
607,22	1414,20
607,29	1415,56
607,37	1421,43
607,45	1466,63
607,52	1495,10
607,60	1487,87
607,68	1429,79
607,76	1443,13
607,83	1389,57
607,91	1458,49
607,99	1457,59
608,06	1430,02
608,14	1408,32
608,22	1423,01
608,30	1510,47
608,37	1402,67
608,45	1373,52
608,53	1449,23
608,60	1423,47
608,68	1391,38
608,76	1436,35
608,83	1474,09
608,91	1420,53
608,99	1469,57
609,06	1442,45
609,14	1464,37
609,22	1422,79
609,29	1403,13
609,37	1390,92
609,45	1468,21
609,52	1387,08
609,60	1397,93
609,68	1391,15
609,75	1433,86
609,83	1377,14
609,91	1545,95
609,98	1409,00
610,06	1402,45
610,13	1441,54
610,21	1420,75
610,29	1436,80
610,36	1388,21
610,44	1414,88
610,52	1424,82
610,59	1412,39
610,67	1380,98
610,74	1417,14
610,82	1399,74
610,90	1446,06
610,97	1413,75
611,05	1440,41
611,13	1424,60
611,20	1512,28
611,28	1411,49
611,35	1409,91
611,43	1391,15
611,51	1454,43
611,58	1397,48
611,66	1496,46
611,73	1400,64
611,81	1488,77
611,88	1423,69
611,96	1453,97
612,04	1393,64
612,11	1395,22
612,19	1512,50
612,26	1402,22
612,34	1418,95
612,41	1392,73
612,49	1391,15
612,57	1382,56
612,64	1390,25
612,72	1466,18
612,79	1532,62
612,87	1387,08
612,94	1387,08
613,02	1446,52
613,09	1431,60
613,17	1456,01
613,24	1398,38
613,32	1474,54
613,40	1415,78
613,47	1433,41
613,55	1377,14
613,62	1465,95
613,70	1476,12
613,77	1379,85
613,85	1481,54
613,92	1411,26
614,00	1380,30
614,07	1413,97
614,15	1377,14
614,22	1382,11
614,30	1444,48
614,37	1392,28
614,45	1407,19
614,52	1378,04
614,60	1417,36
614,67	1454,20
614,75	1366,74
614,82	1466,85
614,90	1402,22
614,97	1378,95
615,05	1490,36
615,12	1463,01
615,20	1410,81
615,27	1412,39
615,34	1410,36
615,42	1395,67
615,49	1408,32
615,57	1379,62
615,64	1399,74
615,72	1415,78
615,79	1387,53
615,87	1429,79
615,94	1467,08
616,02	1428,21
616,09	1494,20
616,16	1425,05
616,24	1420,53
616,31	1392,73
616,39	1482,45
616,46	1446,74
616,54	1420,53
616,61	1484,25
616,68	1383,69
616,76	1422,79
616,83	1431,37
616,91	1387,99
616,98	1387,99
617,06	1479,96
617,13	1368,78
617,20	1383,69
617,28	1412,84
617,35	1361,55
617,43	1470,02
617,50	1380,53
617,57	1428,89
>>>>>End Processed Spectral Data<<<<<
