SpectraSuite Datei
++++++++++++++++++++++++++++++++++++
Datum: Thu Jan 01 07:32:01 CET 2004
Benutzer: H. Stützler
Dark-Spektrum vorhanden: Nein
Referenz-Spektrum vorhanden: Nein
Zahl der probierten Teilspektren: 1
Spektrometer: USB2+H04734
Integrationszeit (usec): 10000000 (USB2+H04734)
Spektren Durchschnitt berechnet: 1 (USB2+H04734)
Boxcar Glättung: 0 (USB2+H04734)
Dunkelstromkorrektur: Nein (USB2+H04734)
Puls/Lampe aktiviert: Nein (USB2+H04734)
Correct for Detector Non-linearity: Nein (USB2+H04734)
Streulichtkorrektur: Nein (USB2+H04734)
Anzahl Pixel in verarbeitetem Spektrum: 2048
>>>>>Begin Processed Spectral Data<<<<<
418,45	1360,42
418,57	1360,42
418,69	1360,42
418,80	1310,70
418,92	1279,06
419,04	3193,14
419,16	2036,10
419,28	2092,60
419,40	1900,52
419,52	2101,64
419,64	1945,71
419,75	1995,43
419,87	2029,33
419,99	1886,96
420,11	1968,31
420,23	1986,39
420,35	2318,58
420,47	2171,69
420,58	1920,85
420,70	2210,11
420,82	2146,84
420,94	2352,48
421,06	2883,54
421,18	2411,24
421,29	2372,82
421,41	2112,94
421,53	2307,28
421,65	2752,47
421,77	2695,97
421,89	2273,39
422,00	2992,01
422,12	2259,83
422,24	2142,32
422,36	2897,10
422,48	2808,97
422,59	2264,35
422,71	2716,31
422,83	2137,80
422,95	2221,41
423,07	2598,80
423,18	2926,48
423,30	2797,67
423,42	2121,98
423,54	2363,78
423,66	2146,84
423,77	2454,17
423,89	2210,11
424,01	2182,99
424,13	2124,24
424,25	2212,37
424,36	2508,41
424,48	2420,28
424,60	2259,83
424,72	2874,50
424,84	2277,91
424,95	2836,08
425,07	2323,10
425,19	2386,38
425,31	2476,77
425,42	2083,56
425,54	2578,46
425,66	2469,99
425,78	2164,91
425,89	2386,38
426,01	2248,53
426,13	2320,84
426,25	2802,19
426,36	2248,53
426,48	2558,12
426,60	2682,42
426,72	2286,95
426,83	2754,73
426,95	2623,66
427,07	2228,19
427,19	3292,57
427,30	2399,94
427,42	2088,08
427,54	2103,90
427,66	2187,51
427,77	2106,16
427,89	2397,68
428,01	2515,19
428,12	2587,50
428,24	2013,51
428,36	2119,72
428,48	2119,72
428,59	2040,62
428,71	2357,00
428,83	2020,29
428,94	2248,53
429,06	2203,33
429,18	2571,68
429,30	2368,30
429,41	2210,11
429,53	2723,09
429,65	2594,28
429,76	2569,42
429,88	2108,42
430,00	2519,71
430,11	2890,32
430,23	2268,87
430,35	3071,11
430,47	2225,93
430,58	2056,44
430,70	2705,01
430,82	2497,11
430,93	3810,07
431,05	2433,83
431,17	2338,92
431,28	2718,57
431,40	2140,06
431,52	3089,18
431,63	2079,04
431,75	1995,43
431,87	2305,02
431,98	2698,23
432,10	2424,80
432,22	2248,53
432,33	2818,00
432,45	2305,02
432,56	2424,80
432,68	2747,95
432,80	2187,51
432,91	2695,97
433,03	2429,31
433,15	2899,36
433,26	2451,91
433,38	2395,42
433,50	1938,93
433,61	2716,31
433,73	2935,52
433,84	2282,43
433,96	2099,38
434,08	2273,39
434,19	2295,98
434,31	2201,07
434,43	2363,78
434,54	2295,98
434,66	2015,77
434,77	1990,91
434,89	2594,28
435,01	2528,75
435,12	2038,36
435,24	2244,01
435,35	2264,35
435,47	3129,86
435,59	2395,42
435,70	2164,91
435,82	2338,92
435,93	2849,64
436,05	2379,60
436,17	2289,21
436,28	2517,45
436,40	2533,27
436,51	2051,92
436,63	2284,69
436,74	2734,39
436,86	3118,56
436,98	4368,25
437,09	2255,31
437,21	2702,75
437,32	2137,80
437,44	2709,53
437,55	2198,81
437,67	5428,11
437,79	3387,48
437,90	2515,19
438,02	2085,82
438,13	13003,05
438,25	3193,14
438,36	2673,38
438,48	2542,31
438,59	2799,93
438,71	2431,57
438,83	2228,19
438,94	2022,55
439,06	2795,41
439,17	2709,53
439,29	2158,14
439,40	2384,12
439,52	2244,01
439,63	2535,53
439,75	2042,88
439,86	2013,51
439,98	2329,88
440,09	2750,21
440,21	2291,47
440,32	2210,11
440,44	2002,21
440,55	2352,48
440,67	2180,73
440,78	2874,50
440,90	2110,68
441,01	2273,39
441,13	2088,08
441,24	2377,34
441,36	2908,40
441,47	2110,68
441,59	2682,42
441,70	2047,40
441,82	2759,25
441,93	2551,35
442,05	1907,29
442,16	2153,62
442,28	2065,48
442,39	2255,31
442,51	2700,49
442,62	2336,66
442,74	2797,67
442,85	2332,14
442,97	3095,96
443,08	2646,26
443,20	2616,88
443,31	2474,51
443,43	2135,54
443,54	2571,68
443,66	1970,57
443,77	2169,43
443,88	1938,93
444,00	2361,52
444,11	2680,16
444,23	2845,12
444,34	2015,77
444,46	2058,70
444,57	2915,18
444,69	2759,25
444,80	2531,01
444,91	3511,77
445,03	2002,21
445,14	2707,27
445,26	1968,31
445,37	2040,62
445,49	2440,61
445,60	2860,94
445,71	3032,69
445,83	2314,06
445,94	2054,18
446,06	2662,08
446,17	1975,09
446,29	1916,33
446,40	2268,87
446,51	2711,79
446,63	2295,98
446,74	2103,90
446,86	2117,46
446,97	2747,95
447,08	2189,77
447,20	2266,61
447,31	1986,39
447,43	2271,13
447,54	2336,66
447,65	2558,12
447,77	2099,38
447,88	2316,32
448,00	2366,04
448,11	1918,59
448,22	2140,06
448,34	2320,84
448,45	1938,93
448,56	2262,09
448,68	2567,16
448,79	2840,60
448,90	2553,61
449,02	2343,44
449,13	2164,91
449,25	2650,78
449,36	2210,11
449,47	2162,66
449,59	2874,50
449,70	2366,04
449,81	2142,32
449,93	2329,88
450,04	2201,07
450,15	2228,19
450,27	2234,97
450,38	2578,46
450,49	2212,37
450,61	3105,00
450,72	2293,72
450,83	2693,71
450,95	2173,95
451,06	2501,63
451,17	2971,67
451,29	2632,70
451,40	2126,50
451,51	1966,05
451,63	2067,74
451,74	2732,13
451,85	2187,51
451,97	2680,16
452,08	2370,56
452,19	2146,84
452,31	2820,26
452,42	2280,17
452,53	3098,22
452,65	2874,50
452,76	2006,73
452,87	2029,33
452,98	2074,52
453,10	2329,88
453,21	1970,57
453,32	2212,37
453,44	2033,84
453,55	1907,29
453,66	3367,14
453,77	2553,61
453,89	2614,62
454,00	2901,62
454,11	2429,31
454,23	2386,38
454,34	2363,78
454,45	2029,33
454,56	2555,86
454,68	3179,58
454,79	2361,52
454,90	2404,46
455,01	2079,04
455,13	1963,79
455,24	2955,85
455,35	2144,58
455,46	1902,77
455,58	1896,00
455,69	2806,71
455,80	2497,11
455,91	2060,96
456,03	2323,10
456,14	2621,40
456,25	2126,50
456,36	2029,33
456,48	2237,23
456,59	2897,10
456,70	2103,90
456,81	2711,79
456,92	3093,70
457,04	2619,14
457,15	3471,10
457,26	2027,07
457,37	2241,75
457,49	2065,48
457,60	2002,21
457,71	2433,83
457,82	2508,41
457,93	2424,80
458,05	2827,04
458,16	2031,58
458,27	2232,71
458,38	2318,58
458,49	2564,90
458,61	2237,23
458,72	2359,26
458,83	2137,80
458,94	2531,01
459,05	2494,85
459,17	4390,84
459,28	2198,81
459,39	2318,58
459,50	1932,15
459,61	2639,48
459,72	1977,35
459,84	2056,44
459,95	2350,22
460,06	4241,70
460,17	2158,14
460,28	2230,45
460,39	2343,44
460,51	2472,25
460,62	2286,95
460,73	2268,87
460,84	1884,70
460,95	2876,76
461,06	3086,92
461,18	2885,80
461,29	2892,58
461,40	2325,36
461,51	2476,77
461,62	3561,49
461,73	2264,35
461,84	2479,03
461,96	2472,25
462,07	2668,86
462,18	2203,33
462,29	2293,72
462,40	2659,82
462,51	2250,79
462,62	2992,01
462,73	3025,91
462,85	2628,18
462,96	2497,11
463,07	2680,16
463,18	3344,54
463,29	2628,18
463,40	2160,40
463,51	2022,55
463,62	2042,88
463,73	2718,57
463,85	2002,21
463,96	2375,08
464,07	2286,95
464,18	2187,51
464,29	2065,48
464,40	2912,92
464,51	2320,84
464,62	2164,91
464,73	2002,21
464,84	2567,16
464,95	2230,45
465,06	2314,06
465,18	1961,53
465,29	2433,83
465,40	2194,29
465,51	2268,87
465,62	2544,57
465,73	2307,28
465,84	2399,94
465,95	2494,85
466,06	2135,54
466,17	2327,62
466,28	2230,45
466,39	2820,26
466,50	2022,55
466,61	1810,12
466,72	2537,79
466,83	1934,41
466,95	1977,35
467,06	1900,52
467,17	2232,71
467,28	2124,24
467,39	2149,10
467,50	2531,01
467,61	1902,77
467,72	1968,31
467,83	1950,23
467,94	2384,12
468,05	1959,27
468,16	2451,91
468,27	2286,95
468,38	2006,73
468,49	2682,42
468,60	2085,82
468,71	2779,59
468,82	2668,86
468,93	2605,58
469,04	3025,91
469,15	2277,91
469,26	2103,90
469,37	2214,63
469,48	2790,89
469,59	2377,34
469,70	2002,21
469,81	2232,71
469,92	1844,02
470,03	2549,09
470,14	1977,35
470,25	2662,08
470,36	2309,54
470,47	1943,45
470,58	1963,79
470,69	2630,44
470,80	2601,06
470,91	1988,65
471,02	2108,42
471,13	2379,60
471,24	2413,50
471,35	2133,28
471,46	2926,48
471,56	2775,07
471,67	2815,75
471,78	2899,36
471,89	1850,80
472,00	2092,60
472,11	2501,63
472,22	2628,18
472,33	2246,27
472,44	2332,14
472,55	2090,34
472,66	2277,91
472,77	2176,21
472,88	3360,36
472,99	2766,03
473,10	1905,03
473,21	2225,93
473,32	2158,14
473,42	1957,01
473,53	1995,43
473,64	2399,94
473,75	2413,50
473,86	2341,18
473,97	2483,55
474,08	2429,31
474,19	2709,53
474,30	3378,44
474,41	2585,24
474,52	2189,77
474,62	2293,72
474,73	2063,22
474,84	3197,66
474,95	2524,23
475,06	2569,42
475,17	1981,87
475,28	1918,59
475,39	2314,06
475,50	1986,39
475,60	1902,77
475,71	2051,92
475,82	2711,79
475,93	1984,13
476,04	2795,41
476,15	2176,21
476,26	2454,17
476,37	2079,04
476,47	2079,04
476,58	2056,44
476,69	1857,58
476,80	1859,84
476,91	2108,42
477,02	2347,96
477,13	2162,66
477,23	2065,48
477,34	2418,02
477,45	2404,46
477,56	2128,76
477,67	2045,14
477,78	2255,31
477,89	2282,43
477,99	2149,10
478,10	2549,09
478,21	2433,83
478,32	2314,06
478,43	2153,62
478,54	3143,42
478,64	2300,50
478,75	2228,19
478,86	2058,70
478,97	2253,05
479,08	2180,73
479,18	1954,75
479,29	2099,38
479,40	1871,14
479,51	1821,42
479,62	2033,84
479,72	2056,44
479,83	1947,97
479,94	2413,50
480,05	2397,68
480,16	2024,81
480,26	2433,83
480,37	1984,13
480,48	2594,28
480,59	2271,13
480,70	2329,88
480,80	2239,49
480,91	2146,84
481,02	1932,15
481,13	2293,72
481,24	2275,65
481,34	1932,15
481,45	3206,70
481,56	2063,22
481,67	2230,45
481,77	2178,47
481,88	2067,74
481,99	2582,98
482,10	2427,05
482,20	4442,82
482,31	2158,14
482,42	2481,29
482,53	2040,62
482,63	2845,12
482,74	2449,65
482,85	1975,09
482,96	2018,03
483,06	1864,36
483,17	2404,46
483,28	1963,79
483,39	2137,80
483,49	2483,55
483,60	3317,43
483,71	2085,82
483,81	2695,97
483,92	2203,33
484,03	2237,23
484,14	2024,81
484,24	1929,89
484,35	2203,33
484,46	2232,71
484,57	2079,04
484,67	2490,33
484,78	2092,60
484,89	3294,83
484,99	2097,12
485,10	2167,17
485,21	2370,56
485,31	2469,99
485,42	2413,50
485,53	2140,06
485,63	2117,46
485,74	3023,65
485,85	3665,44
485,96	5941,09
486,06	2205,59
486,17	2180,73
486,28	2332,14
486,38	1877,92
486,49	2616,88
486,60	1893,74
486,70	2006,73
486,81	2142,32
486,92	1993,17
487,02	1988,65
487,13	1859,84
487,24	2070,00
487,34	1979,61
487,45	2969,41
487,56	2207,85
487,66	1968,31
487,77	2280,17
487,87	2065,48
487,98	1796,56
488,09	2128,76
488,19	1830,46
488,30	3294,83
488,41	2088,08
488,51	1855,32
488,62	1968,31
488,73	1934,41
488,83	2219,15
488,94	2454,17
489,04	3037,21
489,15	2024,81
489,26	1957,01
489,36	2338,92
489,47	2056,44
489,58	1954,75
489,68	2404,46
489,79	2074,52
489,89	2216,89
490,00	2038,36
490,11	2375,08
490,21	2286,95
490,32	1920,85
490,42	2180,73
490,53	2277,91
490,64	1905,03
490,74	1995,43
490,85	1893,74
490,95	2603,32
491,06	2390,90
491,16	2070,00
491,27	2399,94
491,38	2090,34
491,48	3159,24
491,59	2942,30
491,69	2399,94
491,80	1877,92
491,90	2838,34
492,01	1882,44
492,12	2427,05
492,22	2137,80
492,33	2650,78
492,43	2219,15
492,54	1886,96
492,64	2065,48
492,75	2463,21
492,86	2404,46
492,96	2158,14
493,07	2047,40
493,17	2248,53
493,28	2438,35
493,38	2311,80
493,49	2323,10
493,59	2404,46
493,70	2289,21
493,80	1945,71
493,91	1834,98
494,01	1938,93
494,12	2022,55
494,22	2614,62
494,33	2955,85
494,43	2899,36
494,54	2996,53
494,64	2485,81
494,75	2036,10
494,86	2630,44
494,96	1972,83
495,07	2137,80
495,17	2741,17
495,28	2237,23
495,38	1936,67
495,49	2250,79
495,59	2332,14
495,69	2173,95
495,80	2892,58
495,90	2167,17
496,01	1902,77
496,11	2334,40
496,22	2126,50
496,32	1918,59
496,43	2598,80
496,53	2081,30
496,64	2103,90
496,74	2334,40
496,85	2494,85
496,95	2264,35
497,06	2015,77
497,16	2463,21
497,27	2232,71
497,37	2842,86
497,48	1877,92
497,58	2006,73
497,68	2115,20
497,79	2691,45
497,89	2067,74
498,00	2187,51
498,10	1900,52
498,21	2630,44
498,31	2090,34
498,42	2042,88
498,52	2607,84
498,62	2259,83
498,73	2189,77
498,83	2436,09
498,94	1993,17
499,04	2684,68
499,15	2094,86
499,25	1898,26
499,35	2479,03
499,46	2885,80
499,56	3260,93
499,67	2573,94
499,77	1773,96
499,87	2094,86
499,98	2060,96
500,08	1751,37
500,19	1990,91
500,29	2180,73
500,39	2442,87
500,50	2549,09
500,60	2205,59
500,71	2223,67
500,81	2350,22
500,91	1959,27
501,02	2056,44
501,12	2447,39
501,22	1952,49
501,33	2228,19
501,43	2546,83
501,54	1862,10
501,64	2063,22
501,74	2076,78
501,85	2815,75
501,95	1970,57
502,05	2029,33
502,16	2083,56
502,26	2903,88
502,37	2479,03
502,47	2341,18
502,57	2187,51
502,68	1961,53
502,78	1979,61
502,88	2607,84
502,99	2171,69
503,09	2598,80
503,19	1927,63
503,30	1717,47
503,40	1977,35
503,50	2013,51
503,61	2282,43
503,71	2158,14
503,81	2101,64
503,92	2237,23
504,02	2605,58
504,12	3744,53
504,23	2732,13
504,33	2182,99
504,43	2103,90
504,54	2472,25
504,64	2578,46
504,74	3721,94
504,84	2198,81
504,95	2056,44
505,05	1789,78
505,15	2756,99
505,26	1977,35
505,36	2008,99
505,46	2031,58
505,56	2363,78
505,67	2406,72
505,77	2472,25
505,87	1990,91
505,98	1909,55
506,08	2092,60
506,18	2253,05
506,28	2273,39
506,39	2212,37
506,49	2027,07
506,59	2106,16
506,70	1975,09
506,80	2284,69
506,90	3116,30
507,00	1893,74
507,11	2250,79
507,21	2540,05
507,31	2442,87
507,41	2216,89
507,52	2049,66
507,62	2140,06
507,72	2899,36
507,82	2756,99
507,93	2185,25
508,03	2510,67
508,13	2329,88
508,23	2131,02
508,34	2366,04
508,44	1993,17
508,54	1961,53
508,64	2253,05
508,74	1857,58
508,85	2020,29
508,95	2160,40
509,05	1902,77
509,15	2151,36
509,26	2352,48
509,36	2008,99
509,46	2375,08
509,56	1961,53
509,66	2262,09
509,77	2115,20
509,87	2246,27
509,97	2386,38
510,07	2415,76
510,17	2018,03
510,28	3751,31
510,38	2883,54
510,48	2357,00
510,58	2689,19
510,68	2553,61
510,78	2510,67
510,89	2395,42
510,99	2085,82
511,09	2772,81
511,19	2666,60
511,29	2083,56
511,39	2756,99
511,50	2860,94
511,60	2049,66
511,70	2637,22
511,80	2607,84
511,90	2727,61
512,00	2284,69
512,11	2020,29
512,21	2325,36
512,31	1950,23
512,41	2931,00
512,51	2314,06
512,61	3274,49
512,71	2033,84
512,82	2015,77
512,92	1900,52
513,02	2479,03
513,12	2176,21
513,22	2090,34
513,32	2598,80
513,42	2264,35
513,53	2641,74
513,63	2463,21
513,73	2517,45
513,83	1959,27
513,93	2463,21
514,03	2424,80
514,13	2987,49
514,23	2065,48
514,33	2210,11
514,44	2085,82
514,54	2074,52
514,64	3105,00
514,74	2146,84
514,84	2201,07
514,94	2551,35
515,04	2497,11
515,14	2352,48
515,24	2327,62
515,34	2336,66
515,44	1891,48
515,55	1859,84
515,65	2433,83
515,75	2117,46
515,85	2189,77
515,95	2474,51
516,05	2960,37
516,15	2440,61
516,25	1950,23
516,35	1963,79
516,45	2036,10
516,55	2056,44
516,65	2248,53
516,75	3245,11
516,85	2488,07
516,95	2662,08
517,05	2707,27
517,16	2031,58
517,26	3432,68
517,36	2101,64
517,46	2024,81
517,56	2427,05
517,66	2316,32
517,76	2176,21
517,86	2219,15
517,96	2612,36
518,06	2248,53
518,16	2497,11
518,26	3041,73
518,36	2883,54
518,46	3272,23
518,56	4363,73
518,66	5039,42
518,76	5421,33
518,86	6768,18
518,96	7003,21
519,06	7950,07
519,16	8659,66
519,26	8381,70
519,36	7920,70
519,46	7107,16
519,56	6820,16
519,66	6126,39
519,76	4076,73
519,86	3353,58
519,96	3254,15
520,06	2915,18
520,16	3547,93
520,26	2881,28
520,36	2359,26
520,46	2149,10
520,56	2289,21
520,66	2325,36
520,76	2194,29
520,86	2338,92
520,96	2901,62
521,06	2531,01
521,16	2106,16
521,26	2320,84
521,35	2567,16
521,45	2167,17
521,55	2390,90
521,65	2675,64
521,75	2336,66
521,85	2171,69
521,95	2607,84
522,05	2447,39
522,15	3175,06
522,25	9400,88
522,35	4040,57
522,45	3712,90
522,55	4930,94
522,65	5448,44
522,75	6198,71
522,85	7455,17
522,94	8435,94
523,04	9651,72
523,14	9529,69
523,24	8921,80
523,34	8286,79
523,44	7434,83
523,54	5943,35
523,64	4924,16
523,74	4860,89
523,84	3855,27
523,94	3362,62
524,03	2684,68
524,13	2811,23
524,23	2788,63
524,33	2266,61
524,43	2384,12
524,53	2386,38
524,63	2259,83
524,73	2219,15
524,83	1898,26
524,92	2207,85
525,02	1909,55
525,12	2567,16
525,22	2280,17
525,32	1941,19
525,42	2630,44
525,52	2300,50
525,61	2408,98
525,71	1864,36
525,81	2368,30
525,91	1923,11
526,01	2302,76
526,11	2237,23
526,21	2508,41
526,30	2325,36
526,40	1988,65
526,50	2357,00
526,60	2494,85
526,70	2508,41
526,80	2399,94
526,89	1995,43
526,99	1966,05
527,09	2210,11
527,19	2262,09
527,29	2440,61
527,39	2158,14
527,48	2320,84
527,58	2377,34
527,68	1868,88
527,78	2644,00
527,88	3265,45
527,97	2126,50
528,07	1929,89
528,17	2506,15
528,27	2736,65
528,37	2207,85
528,46	1990,91
528,56	2951,33
528,66	2472,25
528,76	1855,32
528,86	2544,57
528,95	2011,25
529,05	2248,53
529,15	2262,09
529,25	2524,23
529,35	2512,93
529,44	2420,28
529,54	2752,47
529,64	2345,70
529,74	2146,84
529,83	1900,52
529,93	2056,44
530,03	2343,44
530,13	2268,87
530,22	2720,83
530,32	2546,83
530,42	2619,14
530,52	1776,22
530,61	2598,80
530,71	1997,69
530,81	2465,47
530,91	2149,10
531,00	2135,54
531,10	2135,54
531,20	2354,74
531,30	2131,02
531,39	2221,41
531,49	2121,98
531,59	3819,11
531,69	3080,14
531,78	2585,24
531,88	3093,70
531,98	3086,92
532,07	2628,18
532,17	3007,83
532,27	3073,37
532,37	2460,95
532,46	2485,81
532,56	2311,80
532,66	1929,89
532,75	2160,40
532,85	2268,87
532,95	2198,81
533,04	2167,17
533,14	2361,52
533,24	2501,63
533,34	2160,40
533,43	2585,24
533,53	1830,46
533,63	2524,23
533,72	2149,10
533,82	1855,32
533,92	1909,55
534,01	3430,42
534,11	3744,53
534,21	2497,11
534,30	2119,72
534,40	2117,46
534,50	1810,12
534,59	1966,05
534,69	1981,87
534,79	2307,28
534,88	2806,71
534,98	2698,23
535,08	1749,11
535,17	2469,99
535,27	2119,72
535,36	1997,69
535,46	2390,90
535,56	1990,91
535,65	2420,28
535,75	2605,58
535,85	2325,36
535,94	1993,17
536,04	2133,28
536,14	2488,07
536,23	2842,86
536,33	2076,78
536,42	2300,50
536,52	2155,88
536,62	1873,40
536,71	2352,48
536,81	2268,87
536,90	2300,50
537,00	2284,69
537,10	2031,58
537,19	2264,35
537,29	2467,73
537,38	2691,45
537,48	2359,26
537,58	2189,77
537,67	2051,92
537,77	2103,90
537,86	2097,12
537,96	2759,25
538,06	2282,43
538,15	2047,40
538,25	3062,07
538,34	3586,35
538,44	3204,44
538,53	2573,94
538,63	2973,93
538,73	2729,87
538,82	2447,39
538,92	2456,43
539,01	3511,77
539,11	2246,27
539,20	3647,36
539,30	2881,28
539,39	2569,42
539,49	3089,18
539,59	3217,99
539,68	4490,28
539,78	4630,39
539,87	4189,72
539,97	4745,64
540,06	5645,05
540,16	6085,72
540,25	7911,66
540,35	10517,24
540,44	12291,20
540,54	16067,37
540,63	18627,76
540,73	21676,27
540,82	23843,44
540,92	24227,61
541,01	24241,17
541,11	22573,42
541,20	19199,50
541,30	15574,73
541,39	12508,15
541,49	9195,24
541,58	7916,18
541,68	6449,55
541,77	5111,73
541,87	4072,21
541,96	3715,16
542,06	4017,97
542,15	4112,89
542,25	4108,37
542,34	3595,39
542,44	2888,06
542,53	2953,59
542,63	3175,06
542,72	2811,23
542,82	2745,69
542,91	2919,70
543,01	2585,24
543,10	3147,94
543,20	2824,78
543,29	3043,99
543,38	2644,00
543,48	2840,60
543,57	2897,10
543,67	3023,65
543,76	3308,39
543,86	3504,99
543,95	4214,58
544,05	5728,66
544,14	7039,36
544,23	7367,04
544,33	9394,10
544,42	12627,92
544,52	15931,78
544,61	21246,90
544,71	28064,80
544,80	35913,18
544,89	43456,48
544,99	49625,81
545,08	53709,32
545,18	53878,81
545,27	53903,67
545,36	50466,47
545,46	43438,41
545,55	35034,11
545,65	26254,68
545,74	18372,40
545,84	12831,30
545,93	9730,82
546,02	7405,46
546,12	6519,60
546,21	5457,48
546,30	4293,67
546,40	3900,46
546,49	3068,85
546,59	3290,31
546,68	2897,10
546,77	3364,88
546,87	3043,99
546,96	3236,07
547,05	2935,52
547,15	2564,90
547,24	2763,77
547,34	2605,58
547,43	2795,41
547,52	3260,93
547,62	2874,50
547,71	2987,49
547,80	2883,54
547,90	2668,86
547,99	3498,21
548,08	2799,93
548,18	2289,21
548,27	2329,88
548,36	2316,32
548,46	2449,65
548,55	2386,38
548,64	2677,90
548,74	2329,88
548,83	2797,67
548,92	3414,60
549,02	2420,28
549,11	3810,07
549,20	2885,80
549,30	2521,97
549,39	2720,83
549,48	2836,08
549,58	2246,27
549,67	2797,67
549,76	2612,36
549,85	2282,43
549,95	2544,57
550,04	2982,97
550,13	2271,13
550,23	2942,30
550,32	2449,65
550,41	2442,87
550,50	2818,00
550,60	3382,96
550,69	2628,18
550,78	2264,35
550,88	3071,11
550,97	2824,78
551,06	2664,34
551,15	2614,62
551,25	3340,03
551,34	2343,44
551,43	2576,20
551,52	2824,78
551,62	3055,29
551,71	3328,73
551,80	3043,99
551,89	2824,78
551,99	2664,34
552,08	2680,16
552,17	2481,29
552,26	2973,93
552,36	2399,94
552,45	2408,98
552,54	2501,63
552,63	3116,30
552,73	3977,30
552,82	3882,38
552,91	3181,84
553,00	4729,82
553,10	3457,54
553,19	4442,82
553,28	3730,98
553,37	4519,66
553,46	4187,46
553,56	5405,51
553,65	5328,67
553,74	5823,58
553,83	7464,21
553,92	7843,86
554,02	8973,78
554,11	9432,52
554,20	9538,73
554,29	11473,14
554,38	10451,70
554,48	10752,26
554,57	10433,62
554,66	10607,63
554,75	10991,80
554,84	10903,67
554,94	10806,50
555,03	10350,01
555,12	10146,63
555,21	10234,76
555,30	11342,07
555,39	9211,06
555,49	8806,55
555,58	8309,39
555,67	7864,20
555,76	7177,21
555,85	5746,74
555,94	5052,97
556,03	4781,80
556,13	4546,77
556,22	4065,43
556,31	3882,38
556,40	3116,30
556,49	3952,44
556,58	3245,11
556,67	3129,86
556,77	2978,45
556,86	3746,79
556,95	3306,13
557,04	3654,14
557,13	3701,60
557,22	3453,02
557,31	3010,09
557,40	2754,73
557,50	3385,22
557,59	2433,83
557,68	2485,81
557,77	3206,70
557,86	2899,36
557,95	2716,31
558,04	2598,80
558,13	2815,75
558,22	2849,64
558,31	2587,50
558,41	2277,91
558,50	2881,28
558,59	3068,85
558,68	3179,58
558,77	3032,69
558,86	2309,54
558,95	2343,44
559,04	2858,68
559,13	3184,10
559,22	2406,72
559,31	2558,12
559,40	2359,26
559,49	2485,81
559,59	3066,59
559,68	2282,43
559,77	3367,14
559,86	3570,53
559,95	2718,57
560,04	2657,56
560,13	2856,42
560,22	3778,43
560,31	2872,24
560,40	2808,97
560,49	2237,23
560,58	2515,19
560,67	2284,69
560,76	2320,84
560,85	2237,23
560,94	3186,36
561,03	2436,09
561,12	4212,32
561,21	3864,31
561,30	2720,83
561,39	2646,26
561,48	2849,64
561,57	2325,36
561,66	2960,37
561,75	3624,76
561,84	2594,28
561,93	2512,93
562,02	2650,78
562,11	2404,46
562,20	2454,17
562,29	2718,57
562,38	2124,24
562,47	3105,00
562,56	2781,85
562,65	2472,25
562,74	2605,58
562,83	4282,37
562,92	2897,10
563,01	3398,78
563,10	2366,04
563,19	2718,57
563,28	4476,72
563,37	3249,63
563,46	2268,87
563,55	2515,19
563,64	4121,93
563,73	2347,96
563,82	2949,08
563,91	3566,01
564,00	2734,39
564,09	2318,58
564,18	2752,47
564,27	2375,08
564,35	2869,98
564,44	2709,53
564,53	3080,14
564,62	2996,53
564,71	2795,41
564,80	2921,96
564,89	3001,05
564,98	20424,32
565,07	3466,58
565,16	2395,42
565,25	5437,15
565,34	2610,10
565,43	2628,18
565,51	2379,60
565,60	3419,12
565,69	2510,67
565,78	3590,87
565,87	2189,77
565,96	2128,76
566,05	2969,41
566,14	3376,18
566,23	2874,50
566,32	3459,80
566,40	3163,76
566,49	3441,72
566,58	2497,11
566,67	2686,94
566,76	2406,72
566,85	2451,91
566,94	2682,42
567,03	2926,48
567,11	2630,44
567,20	2560,38
567,29	3328,73
567,38	3028,17
567,47	2253,05
567,56	2709,53
567,65	2768,29
567,73	2271,13
567,82	2357,00
567,91	2766,03
568,00	2671,12
568,09	3380,70
568,18	2469,99
568,27	2691,45
568,35	2777,33
568,44	3043,99
568,53	2883,54
568,62	2305,02
568,71	2343,44
568,80	2408,98
568,88	2998,79
568,97	3412,34
569,06	2291,47
569,15	2551,35
569,24	2908,40
569,32	3014,61
569,41	2718,57
569,50	2201,07
569,59	2225,93
569,68	2336,66
569,76	2666,60
569,85	2860,94
569,94	3269,97
570,03	2413,50
570,12	2879,02
570,20	2671,12
570,29	2799,93
570,38	2827,04
570,47	2766,03
570,56	2221,41
570,64	2454,17
570,73	2564,90
570,82	3369,40
570,91	3156,98
570,99	2359,26
571,08	2273,39
571,17	2440,61
571,26	3132,12
571,34	2411,24
571,43	2908,40
571,52	2797,67
571,61	2363,78
571,69	2298,24
571,78	3055,29
571,87	3211,22
571,96	3084,66
572,04	3032,69
572,13	3150,20
572,22	2370,56
572,31	2253,05
572,39	2302,76
572,48	2761,51
572,57	2361,52
572,66	2361,52
572,74	2194,29
572,83	2795,41
572,92	2472,25
573,00	2320,84
573,09	2883,54
573,18	3041,73
573,27	3007,83
573,35	2368,30
573,44	2291,47
573,53	2580,72
573,61	2621,40
573,70	2781,85
573,79	2393,16
573,87	3615,72
573,96	2429,31
574,05	2612,36
574,14	2517,45
574,22	2388,64
574,31	3071,11
574,40	2110,68
574,48	2519,71
574,57	2700,49
574,66	2490,33
574,74	2535,53
574,83	3152,46
574,92	3222,51
575,00	2567,16
575,09	3089,18
575,18	2528,75
575,26	3405,56
575,35	2524,23
575,43	2404,46
575,52	2833,82
575,61	2836,08
575,69	3123,08
575,78	2352,48
575,87	3663,18
575,95	2858,68
576,04	2501,63
576,13	2775,07
576,21	2483,55
576,30	2766,03
576,38	2709,53
576,47	2549,09
576,56	2503,89
576,64	2494,85
576,73	3141,16
576,82	3025,91
576,90	2745,69
576,99	2666,60
577,07	2546,83
577,16	2716,31
577,25	2989,75
577,33	3916,28
577,42	2806,71
577,50	2481,29
577,59	3003,31
577,68	3382,96
577,76	2858,68
577,85	2811,23
577,93	3032,69
578,02	3073,37
578,10	3023,65
578,19	3095,96
578,28	2926,48
578,36	3019,13
578,45	3123,08
578,53	2822,52
578,62	3057,55
578,70	2885,80
578,79	3136,64
578,88	3229,29
578,96	2899,36
579,05	2915,18
579,13	4201,02
579,22	3477,87
579,30	3150,20
579,39	3412,34
579,47	4047,35
579,56	3014,61
579,64	5554,66
579,73	3120,82
579,82	3326,47
579,90	2815,75
579,99	2775,07
580,07	3242,85
580,16	2992,01
580,24	3403,30
580,33	2542,31
580,41	3001,05
580,50	2619,14
580,58	2808,97
580,67	2763,77
580,75	2820,26
580,84	2851,90
580,92	2483,55
581,01	3755,83
581,09	2555,86
581,18	2691,45
581,26	2589,76
581,35	2282,43
581,43	3075,63
581,52	2686,94
581,60	2867,72
581,69	2644,00
581,77	2833,82
581,86	2851,90
581,94	2582,98
582,02	3050,77
582,11	2295,98
582,19	3315,17
582,28	3719,68
582,36	3563,75
582,45	3593,13
582,53	2386,38
582,62	2408,98
582,70	2347,96
582,79	2768,29
582,87	2293,72
582,96	2815,75
583,04	3342,28
583,12	2759,25
583,21	2662,08
583,29	2849,64
583,38	2863,20
583,46	2531,01
583,55	2695,97
583,63	2318,58
583,71	2869,98
583,80	2657,56
583,88	2284,69
583,97	3938,88
584,05	2856,42
584,13	2946,82
584,22	2879,02
584,30	2528,75
584,39	3093,70
584,47	3080,14
584,55	2305,02
584,64	2759,25
584,72	2795,41
584,81	2555,86
584,89	2413,50
584,97	2300,50
585,06	2320,84
585,14	2698,23
585,23	2673,38
585,31	2201,07
585,39	2531,01
585,48	2700,49
585,56	2289,21
585,64	2813,49
585,73	2657,56
585,81	2540,05
585,90	3053,03
585,98	2499,37
586,06	2517,45
586,15	3330,99
586,23	2268,87
586,31	2429,31
586,40	2264,35
586,48	3181,84
586,56	2438,35
586,65	2488,07
586,73	2395,42
586,81	2829,30
586,90	2501,63
586,98	2160,40
587,06	2228,19
587,15	2533,27
587,23	2497,11
587,31	2567,16
587,40	2379,60
587,48	2250,79
587,56	3066,59
587,65	3877,86
587,73	2933,26
587,81	2705,01
587,90	3602,17
587,98	2632,70
588,06	2368,30
588,14	2372,82
588,23	2540,05
588,31	3276,75
588,39	2836,08
588,48	2494,85
588,56	2422,54
588,64	2752,47
588,72	2727,61
588,81	2424,80
588,89	2517,45
588,97	2641,74
589,06	3260,93
589,14	3114,04
589,22	2614,62
589,30	2555,86
589,39	2372,82
589,47	3001,05
589,55	3450,76
589,63	2736,65
589,72	2311,80
589,80	2458,69
589,88	2777,33
589,96	3073,37
590,05	2716,31
590,13	2741,17
590,21	3100,48
590,29	3371,66
590,38	2888,06
590,46	3086,92
590,54	2305,02
590,62	2490,33
590,71	3050,77
590,79	3118,56
590,87	2246,27
590,95	2338,92
591,03	2537,79
591,12	2725,35
591,20	2447,39
591,28	3453,02
591,36	2793,15
591,44	2526,49
591,53	2621,40
591,61	2521,97
591,69	2357,00
591,77	2702,75
591,85	2686,94
591,94	2343,44
592,02	2420,28
592,10	3028,17
592,18	2901,62
592,26	2668,86
592,34	2259,83
592,43	2219,15
592,51	2223,67
592,59	2393,16
592,67	2860,94
592,75	2354,74
592,84	2427,05
592,92	3039,47
593,00	2440,61
593,08	2499,37
593,16	2192,03
593,24	2454,17
593,32	2935,52
593,41	2630,44
593,49	2203,33
593,57	2325,36
593,65	2311,80
593,73	2752,47
593,81	2777,33
593,89	3057,55
593,98	2657,56
594,06	2361,52
594,14	2395,42
594,22	2332,14
594,30	2445,13
594,38	2442,87
594,46	3043,99
594,54	3057,55
594,62	2958,11
594,71	2521,97
594,79	2363,78
594,87	2573,94
594,95	2540,05
595,03	3005,57
595,11	2589,76
595,19	3441,72
595,27	2503,89
595,35	2381,86
595,43	2336,66
595,52	2408,98
595,60	2418,02
595,68	3502,73
595,76	2357,00
595,84	2732,13
595,92	2305,02
596,00	3213,47
596,08	3005,57
596,16	2623,66
596,24	2490,33
596,32	2431,57
596,40	2838,34
596,48	2779,59
596,56	2786,37
596,64	2307,28
596,73	3152,46
596,81	2377,34
596,89	2745,69
596,97	2182,99
597,05	4225,88
597,13	2521,97
597,21	2182,99
597,29	2438,35
597,37	3057,55
597,45	2763,77
597,53	2372,82
597,61	2673,38
597,69	2890,32
597,77	2503,89
597,85	2375,08
597,93	2634,96
598,01	2436,09
598,09	2849,64
598,17	2573,94
598,25	2639,48
598,33	2151,36
598,41	2406,72
598,49	2164,91
598,57	2332,14
598,65	2463,21
598,73	2682,42
598,81	2639,48
598,89	2535,53
598,97	2253,05
599,05	3181,84
599,13	2497,11
599,21	2305,02
599,29	2549,09
599,37	2488,07
599,45	2375,08
599,53	3206,70
599,61	2372,82
599,69	2686,94
599,77	2469,99
599,85	2284,69
599,93	2332,14
600,00	2228,19
600,08	2729,87
600,16	2112,94
600,24	2158,14
600,32	3276,75
600,40	3486,91
600,48	3181,84
600,56	3010,09
600,64	3005,57
600,72	2497,11
600,80	2573,94
600,88	2494,85
600,96	3166,02
601,04	2268,87
601,12	2268,87
601,19	2106,16
601,27	2361,52
601,35	2564,90
601,43	2350,22
601,51	2558,12
601,59	2352,48
601,67	2203,33
601,75	2311,80
601,83	2474,51
601,91	2124,24
601,98	2205,59
602,06	3075,63
602,14	2603,32
602,22	2684,68
602,30	2888,06
602,38	2695,97
602,46	2241,75
602,54	2987,49
602,61	2695,97
602,69	2628,18
602,77	2185,25
602,85	2275,65
602,93	2248,53
603,01	2506,15
603,09	3030,43
603,17	2449,65
603,24	2639,48
603,32	2151,36
603,40	2508,41
603,48	2788,63
603,56	2085,82
603,64	2553,61
603,71	2246,27
603,79	2521,97
603,87	2695,97
603,95	3719,68
604,03	2497,11
604,11	2980,71
604,18	2693,71
604,26	2266,61
604,34	2151,36
604,42	2650,78
604,50	2293,72
604,57	2268,87
604,65	2429,31
604,73	2472,25
604,81	2619,14
604,89	2271,13
604,96	2361,52
605,04	2711,79
605,12	2341,18
605,20	2822,52
605,28	3215,73
605,35	2582,98
605,43	2585,24
605,51	2415,76
605,59	2899,36
605,67	3434,94
605,74	2456,43
605,82	2515,19
605,90	2210,11
605,98	2671,12
606,05	2492,59
606,13	2761,51
606,21	2603,32
606,29	2469,99
606,36	2499,37
606,44	2230,45
606,52	2616,88
606,60	2422,54
606,67	2067,74
606,75	2361,52
606,83	2081,30
606,91	2894,84
606,98	2182,99
607,06	2519,71
607,14	2418,02
607,22	2368,30
607,29	2275,65
607,37	2490,33
607,45	2725,35
607,52	2770,55
607,60	2777,33
607,68	2350,22
607,76	2725,35
607,83	2047,40
607,91	2628,18
607,99	2594,28
608,06	2589,76
608,14	2415,76
608,22	2341,18
608,30	3048,51
608,37	2241,75
608,45	2002,21
608,53	2564,90
608,60	2671,12
608,68	2280,17
608,76	2357,00
608,83	2802,19
608,91	2232,71
608,99	2761,51
609,06	2573,94
609,14	2745,69
609,22	2420,28
609,29	2280,17
609,37	2110,68
609,45	2863,20
609,52	2255,31
609,60	2293,72
609,68	2320,84
609,75	2562,64
609,83	1995,43
609,91	3387,48
609,98	2386,38
610,06	2368,30
610,13	2677,90
610,21	2460,95
610,29	2476,77
610,36	2079,04
610,44	2239,49
610,52	2390,90
610,59	2176,21
610,67	2149,10
610,74	2436,09
610,82	2158,14
610,90	2585,24
610,97	2318,58
611,05	2761,51
611,13	2567,16
611,20	3245,11
611,28	2239,49
611,35	2384,12
611,43	2013,51
611,51	2510,67
611,58	2492,59
611,66	3055,29
611,73	2212,37
611,81	3077,89
611,88	2537,79
611,96	2784,11
612,04	2088,08
612,11	2189,77
612,19	3208,96
612,26	2325,36
612,34	2427,05
612,41	2377,34
612,49	2063,22
612,57	2076,78
612,64	2106,16
612,72	3055,29
612,79	3419,12
612,87	2092,60
612,94	2040,62
613,02	2427,05
613,09	2343,44
613,17	2666,60
613,24	2305,02
613,32	2766,03
613,40	2234,97
613,47	2418,02
613,55	2092,60
613,62	2881,28
613,70	2982,97
613,77	2255,31
613,85	2876,76
613,92	2286,95
614,00	2088,08
614,07	2266,61
614,15	1995,43
614,22	1993,17
614,30	2528,75
614,37	2024,81
614,45	2277,91
614,52	2171,69
614,60	2259,83
614,67	2725,35
614,75	1961,53
614,82	2612,36
614,90	2293,72
614,97	2121,98
615,05	3166,02
615,12	2705,01
615,20	2483,55
615,27	2395,42
615,34	2372,82
615,42	2094,86
615,49	2368,30
615,57	2027,07
615,64	2081,30
615,72	2207,85
615,79	2160,40
615,87	2503,89
615,94	2899,36
616,02	2431,57
616,09	2910,66
616,16	2623,66
616,24	2354,74
616,31	2081,30
616,39	3288,05
616,46	2926,48
616,54	2460,95
616,61	3206,70
616,68	2126,50
616,76	2291,47
616,83	2524,23
616,91	2194,29
616,98	2067,74
617,06	2790,89
617,13	2090,34
617,20	2203,33
617,28	2422,54
617,35	2119,72
617,43	2872,24
617,50	2264,35
617,57	2341,18
>>>>>End Processed Spectral Data<<<<<
