SpectraSuite Datei
++++++++++++++++++++++++++++++++++++
Datum: Fri Jan 02 01:20:50 CET 2004
Benutzer: Student
Dark-Spektrum vorhanden: Nein
Referenz-Spektrum vorhanden: Nein
Zahl der probierten Teilspektren: 1
Spektrometer: USB2+H04734
Integrationszeit (usec): 30000000 (USB2+H04734)
Spektren Durchschnitt berechnet: 10 (USB2+H04734)
Boxcar Glättung: 0 (USB2+H04734)
Dunkelstromkorrektur: Nein (USB2+H04734)
Puls/Lampe aktiviert: Nein (USB2+H04734)
Correct for Detector Non-linearity: Nein (USB2+H04734)
Streulichtkorrektur: Nein (USB2+H04734)
Anzahl Pixel in verarbeitetem Spektrum: 2048
>>>>>Begin Processed Spectral Data<<<<<
418,45	1396,35
418,57	1396,35
418,69	1396,35
418,80	1303,24
418,92	1289,46
419,04	7475,74
419,16	3620,70
419,28	3774,36
419,40	3293,92
419,52	3826,79
419,64	3177,09
419,75	3321,95
419,87	3497,99
419,99	3019,58
420,11	3253,93
420,23	3565,10
420,35	4684,85
420,47	3941,59
420,58	3239,91
420,70	4107,01
420,82	3769,84
420,94	4588,13
421,06	6009,79
421,18	4731,18
421,29	4171,64
421,41	3446,92
421,53	4181,81
421,65	5345,62
421,77	5245,96
421,89	4085,09
422,00	6267,41
422,12	3933,91
422,24	3746,79
422,36	5728,21
422,48	5650,92
422,59	4161,25
422,71	5294,32
422,83	3364,66
422,95	3719,68
423,07	4937,27
423,18	6259,50
423,30	5364,15
423,42	3747,25
423,54	4254,35
423,66	3668,60
423,77	4475,14
423,89	3935,26
424,01	3552,22
424,13	3284,43
424,25	3533,47
424,36	4685,07
424,48	4338,42
424,60	3880,12
424,72	5995,77
424,84	3898,88
424,95	5585,62
425,07	4304,29
425,19	4347,46
425,31	4627,00
425,42	3338,67
425,54	4974,56
425,66	4662,48
425,78	3735,27
425,89	4331,19
426,01	3863,40
426,13	4057,75
426,25	5613,41
426,36	3951,76
426,48	4930,04
426,60	5118,51
426,72	4024,53
426,83	5139,53
426,95	4791,06
427,07	4096,16
427,19	6939,03
427,30	4325,54
427,42	3206,24
427,54	3514,26
427,66	3964,87
427,77	3643,75
427,89	4516,72
428,01	4781,57
428,12	4892,98
428,24	3237,88
428,36	3424,54
428,48	3200,59
428,59	3369,40
428,71	4381,35
428,83	3353,36
428,94	3780,01
429,06	3747,92
429,18	4904,05
429,30	4216,16
429,41	3837,87
429,53	5338,39
429,65	5112,18
429,76	4797,16
429,88	3736,62
430,00	4659,31
430,11	5817,02
430,23	3897,07
430,35	6400,74
430,47	3840,80
430,58	3377,76
430,70	5362,12
430,82	4604,17
430,93	8976,26
431,05	4366,89
431,17	4034,24
431,28	5409,12
431,40	3547,93
431,52	6393,50
431,63	3320,14
431,75	3270,65
431,87	3905,89
431,98	5212,29
432,10	4354,46
432,22	3936,17
432,33	5684,60
432,45	4214,13
432,56	4419,09
432,68	5075,35
432,80	3827,47
432,91	5175,46
433,03	4367,34
433,15	5799,40
433,26	4495,25
433,38	3981,82
433,50	3098,90
433,61	5368,90
433,73	6020,18
433,84	4031,53
433,96	3422,06
434,08	4080,34
434,19	3953,34
434,31	3909,28
434,43	4337,74
434,54	4111,76
434,66	3167,60
434,77	3070,65
434,89	5111,05
435,01	4542,48
435,12	3376,86
435,24	3834,70
435,35	3740,47
435,47	6665,36
435,59	4162,15
435,70	3540,70
435,82	4142,94
435,93	5514,43
436,05	4380,45
436,17	3980,23
436,28	4826,99
436,40	4669,71
436,51	3391,10
436,63	4036,73
436,74	5568,22
436,86	6400,51
436,98	10687,18
437,09	3889,62
437,21	5202,35
437,32	3478,55
437,44	5099,75
437,55	3759,00
437,67	14015,00
437,79	7583,76
437,90	4712,64
438,02	3611,43
438,13	37909,29
438,25	5897,47
438,36	5175,68
438,48	4678,07
438,59	5576,35
438,71	4468,58
438,83	3606,23
438,94	3346,35
439,06	5614,54
439,17	5363,25
439,29	3611,88
439,40	4303,16
439,52	3881,93
439,63	4774,79
439,75	3383,19
439,86	3295,51
439,98	4180,00
440,09	5225,85
440,21	4051,64
440,32	3773,01
440,44	3108,84
440,55	4245,09
440,67	3787,47
440,78	5740,19
440,90	3414,37
441,01	3796,51
441,13	3488,72
441,24	4610,50
441,36	6001,88
441,47	3588,15
441,59	5320,54
441,70	3316,97
441,82	5311,05
441,93	4673,55
442,05	3076,76
442,16	3626,35
442,28	3134,38
442,39	4117,18
442,51	5142,01
442,62	3780,47
442,74	5261,56
442,85	4054,81
442,97	6908,74
443,08	5110,60
443,20	4975,24
443,31	4596,04
443,43	3721,03
443,54	4676,49
443,66	3133,25
443,77	3535,27
443,88	3138,45
444,00	4341,13
444,11	5175,01
444,23	5911,93
444,34	3435,62
444,46	3437,42
444,57	5884,82
444,69	5493,19
444,80	4699,99
444,91	7654,49
445,03	3222,29
445,14	5291,39
445,26	3130,99
445,37	3306,81
445,49	4305,65
445,60	5813,18
445,71	6083,91
445,83	4126,67
445,94	3363,75
446,06	5391,50
446,17	3205,11
446,29	2916,31
446,40	4005,09
446,51	5529,35
446,63	4094,58
446,74	3558,10
446,86	3605,78
446,97	5591,72
447,08	3547,93
447,20	3823,63
447,31	3169,18
447,43	4113,34
447,54	4338,87
447,65	4890,94
447,77	3416,41
447,88	4017,97
448,00	4438,75
448,11	3112,23
448,22	3597,42
448,34	4420,00
448,45	2982,29
448,56	3868,15
448,68	4510,16
448,79	5768,44
448,90	4800,78
449,02	3856,62
449,13	3721,48
449,25	4549,03
449,36	3643,07
449,47	3845,32
449,59	6061,76
449,70	4233,56
449,81	3619,79
449,93	3982,27
450,04	3682,16
450,15	3834,93
450,27	3984,98
450,38	4734,79
450,49	3736,62
450,61	6446,61
450,72	3966,68
450,83	5124,61
450,95	3824,76
451,06	4717,62
451,17	6463,33
451,29	5069,02
451,40	3535,50
451,51	3091,67
451,63	3235,62
451,74	5482,12
451,85	3865,44
451,97	5218,85
452,08	4167,57
452,19	3453,69
452,31	5820,64
452,42	4103,39
452,53	6236,22
452,65	5567,09
452,76	3222,06
452,87	3299,80
452,98	3395,16
453,10	4047,58
453,21	3265,45
453,32	3632,45
453,44	3273,36
453,55	2996,08
453,66	7632,57
453,77	4798,74
453,89	5005,52
454,00	6344,01
454,11	4360,56
454,23	4203,73
454,34	4230,40
454,45	3101,61
454,56	4790,83
454,68	6864,68
454,79	4109,72
454,90	4452,31
455,01	3292,34
455,13	3116,30
455,24	6123,91
455,35	3550,87
455,46	2745,69
455,58	2961,73
455,69	5805,95
455,80	4700,89
455,91	3152,23
456,03	3949,50
456,14	5136,14
456,25	3438,10
456,36	3203,76
456,48	3833,12
456,59	5793,97
456,70	3476,07
456,81	5533,87
456,92	6586,49
457,04	5080,32
457,15	7599,35
457,26	3143,19
457,37	3877,64
457,49	3481,04
457,60	3117,88
457,71	4133,68
457,82	4735,24
457,93	4199,66
458,05	5524,15
458,16	3311,55
458,27	3794,25
458,38	4172,77
458,49	4781,57
458,61	3786,79
458,72	4340,45
458,83	3876,06
458,94	4835,13
459,05	4684,17
459,17	10626,39
459,28	3590,87
459,39	4000,35
459,50	3066,13
459,61	5226,30
459,72	3158,34
459,84	3244,66
459,95	4015,71
460,06	10389,33
460,17	3456,86
460,28	3916,96
460,39	3954,92
460,51	4493,89
460,62	3924,19
460,73	3862,05
460,84	2759,48
460,95	5882,78
461,06	6350,12
461,18	5793,52
461,29	5680,08
461,40	4133,00
461,51	4574,34
461,62	7921,60
461,73	3991,08
461,84	4742,02
461,96	4643,72
462,07	5059,08
462,18	3555,16
462,29	4001,70
462,40	5256,58
462,51	3874,02
462,62	5977,92
462,73	6185,60
462,85	5031,28
462,96	4894,11
463,07	5345,85
463,18	7388,28
463,29	4937,05
463,40	3708,38
463,51	3161,27
463,62	3287,82
463,73	5115,35
463,85	3335,51
463,96	4258,87
464,07	4127,58
464,18	3936,62
464,29	3168,05
464,40	6154,19
464,51	4222,49
464,62	3810,30
464,73	3140,48
464,84	4859,76
464,95	3855,72
465,06	3985,66
465,18	2865,46
465,29	4338,87
465,40	3635,16
465,51	3989,95
465,62	4966,20
465,73	3935,04
465,84	4453,89
465,95	4519,43
466,06	3575,73
466,17	4045,32
466,28	3877,19
466,39	5448,67
466,50	2986,14
466,61	2580,95
466,72	4340,22
466,83	2958,79
466,95	3219,58
467,06	2847,38
467,17	3804,42
467,28	3391,78
467,39	3794,93
467,50	4659,99
467,61	2935,74
467,72	3038,79
467,83	3143,65
467,94	4277,85
468,05	2980,71
468,16	4447,34
468,27	4050,51
468,38	3059,81
468,49	5391,50
468,60	3167,15
468,71	5592,62
468,82	5292,06
468,93	5095,46
469,04	6153,28
469,15	3917,41
469,26	3485,78
469,37	3858,43
469,48	5572,51
469,59	4167,57
469,70	3068,85
469,81	3974,36
469,92	2714,73
470,03	4872,41
470,14	3072,24
470,25	5143,82
470,36	4069,05
470,47	2874,73
470,58	2904,33
470,69	4910,38
470,80	4997,16
470,91	3245,79
471,02	3517,20
471,13	4181,58
471,24	4260,00
471,35	3514,03
471,46	6064,47
471,56	5166,87
471,67	5357,60
471,78	5831,71
471,89	2708,40
472,00	3296,64
472,11	4686,66
472,22	5244,38
472,33	3830,18
472,44	4173,45
472,55	3394,26
472,66	3895,94
472,77	3648,72
472,88	7150,09
472,99	5303,59
473,10	2863,43
473,21	3585,44
473,32	3671,09
473,42	3012,58
473,53	3217,32
473,64	4301,36
473,75	4414,35
473,86	4081,02
473,97	4447,11
474,08	4429,71
474,19	5286,41
474,30	7109,64
474,41	4526,66
474,52	3545,44
474,62	4140,68
474,73	3321,04
474,84	6786,71
474,95	4722,14
475,06	4799,20
475,17	3160,37
475,28	2693,94
475,39	3990,18
475,50	3136,19
475,60	2947,95
475,71	3102,74
475,82	5196,47
475,93	3211,44
476,04	5706,06
476,15	3657,53
476,26	4470,84
476,37	3442,40
476,47	3475,84
476,58	3399,01
476,69	2744,56
476,80	2775,29
476,91	3711,31
477,02	4086,90
477,13	3940,24
477,23	3273,36
477,34	4139,55
477,45	4362,60
477,56	3560,81
477,67	3512,68
477,78	4044,41
477,89	3917,41
477,99	3477,65
478,10	4834,00
478,21	4439,66
478,32	4060,01
478,43	3551,55
478,54	6602,31
478,64	4446,66
478,75	3882,61
478,86	3369,18
478,97	3914,93
479,08	3694,82
479,18	3483,98
479,29	3516,52
479,40	2997,21
479,51	2643,32
479,62	3316,75
479,72	3374,15
479,83	2857,55
479,94	4360,56
480,05	4394,46
480,16	3169,86
480,26	4257,52
480,37	3034,50
480,48	4862,47
480,59	3916,51
480,70	3967,81
480,80	3676,51
480,91	3183,65
481,02	2850,32
481,13	4220,00
481,24	3992,44
481,34	3016,42
481,45	6862,19
481,56	3490,30
481,67	3547,70
481,77	3463,19
481,88	3360,36
481,99	4948,57
482,10	4320,56
482,20	10619,38
482,31	3538,66
482,42	4470,62
482,53	3343,64
482,63	5817,47
482,74	4833,32
482,85	3108,17
482,96	3246,24
483,06	2820,26
483,17	4493,22
483,28	3115,40
483,39	3779,79
483,49	4701,35
483,60	7334,50
483,71	3260,71
483,81	5029,92
483,92	3780,92
484,03	3738,66
484,14	3451,21
484,24	3034,72
484,35	3752,90
484,46	3910,86
484,57	3368,27
484,67	4323,05
484,78	3382,74
484,89	6981,29
484,99	3428,61
485,10	3782,50
485,21	4339,77
485,31	4275,82
485,42	4194,47
485,53	3394,94
485,63	3749,96
485,74	6148,09
485,85	7957,53
485,96	22119,19
486,06	3996,96
486,17	3988,82
486,28	4274,69
486,38	2827,72
486,49	4935,01
486,60	2967,38
486,70	3118,11
486,81	3486,01
486,92	3187,26
487,02	3252,34
487,13	2581,18
487,24	3414,83
487,34	3108,39
487,45	6067,41
487,56	3732,56
487,66	3057,09
487,77	4106,78
487,87	3420,70
487,98	2604,45
488,09	3577,53
488,19	2584,79
488,30	7289,75
488,41	3405,11
488,51	2696,43
488,62	3152,69
488,73	3159,46
488,83	3897,98
488,94	4458,19
489,04	6036,90
489,15	3187,94
489,26	2971,67
489,36	4203,73
489,47	3397,42
489,58	2989,53
489,68	4359,21
489,79	3083,08
489,89	3875,38
490,00	3372,34
490,11	4255,03
490,21	4248,25
490,32	2970,09
490,42	3766,00
490,53	3933,00
490,64	2920,38
490,74	3034,50
490,85	2826,59
490,95	4937,27
491,06	4328,02
491,16	3162,40
491,27	4370,05
491,38	3301,83
491,48	6773,83
491,59	6135,21
491,69	4323,95
491,80	2706,37
491,90	5663,35
492,01	2878,34
492,12	4578,41
492,22	3424,09
492,33	5213,87
492,43	3865,44
492,54	2840,83
492,64	3024,78
492,75	3921,03
492,86	4124,19
492,96	3583,41
493,07	3191,10
493,17	4109,95
493,28	4614,34
493,38	4168,48
493,49	3222,06
493,59	4412,31
493,70	3984,75
493,80	3150,65
493,91	2842,64
494,01	3109,52
494,12	3298,67
494,22	5166,42
494,33	6020,18
494,43	5672,17
494,54	6299,27
494,64	4442,37
494,75	3160,59
494,86	5283,48
494,96	3111,10
495,07	3585,22
495,17	5525,50
495,28	3539,12
495,38	3146,81
495,49	3723,07
495,59	4325,54
495,69	3779,56
495,80	5629,00
495,90	3536,86
496,01	2911,11
496,11	4198,76
496,22	3524,43
496,32	2893,03
496,43	4797,84
496,53	3429,97
496,64	3572,56
496,74	4070,40
496,85	4551,97
496,95	3965,32
497,06	3283,08
497,16	4287,34
497,27	3694,82
497,37	5351,95
497,48	2941,39
497,58	2952,46
497,68	3371,89
497,79	5012,07
497,89	3314,26
498,00	3815,94
498,10	2808,97
498,21	5119,64
498,31	3356,97
498,42	3156,30
498,52	5264,04
498,62	3767,81
498,73	3817,07
498,83	4353,33
498,94	3272,23
499,04	5262,46
499,15	3516,29
499,25	3008,06
499,35	4670,61
499,46	6090,01
499,56	7013,83
499,67	4535,93
499,77	2673,15
499,87	2977,32
499,98	3185,23
500,08	2500,73
500,19	3309,29
500,29	3761,03
500,39	4284,18
500,50	4953,09
500,60	3797,19
500,71	3820,01
500,81	3935,94
500,91	2837,89
501,02	3368,95
501,12	4407,12
501,22	2900,26
501,33	3966,68
501,43	4714,90
501,54	2776,42
501,64	3186,58
501,74	3304,77
501,85	5553,98
501,95	3058,00
502,05	3094,16
502,16	3437,20
502,26	5832,16
502,37	4541,58
502,47	4061,81
502,57	3568,49
502,68	3146,58
502,78	2952,92
502,88	5008,23
502,99	3565,78
503,09	4919,64
503,19	2936,42
503,30	2693,71
503,40	3030,43
503,50	3292,12
503,61	3715,83
503,71	3424,09
503,81	3474,94
503,92	3937,07
504,02	4977,95
504,12	8587,80
504,23	5359,41
504,33	3621,83
504,43	3475,16
504,54	4788,12
504,64	4695,24
504,74	8664,63
504,84	3947,24
504,95	3383,87
505,05	2500,50
505,15	5501,55
505,26	2862,52
505,36	3256,86
505,46	3207,37
505,56	4286,67
505,67	4377,74
505,77	4218,87
505,87	3036,08
505,98	2912,92
506,08	3295,28
506,18	3662,73
506,28	3927,81
506,39	3667,70
506,49	3349,52
506,59	3334,15
506,70	2823,43
506,80	3935,94
506,90	6379,95
507,00	2616,88
507,11	3841,71
507,21	4953,32
507,31	4471,29
507,41	3772,56
507,52	3305,22
507,62	3601,04
507,72	5224,04
507,82	5069,70
507,93	3391,55
508,03	4879,65
508,13	4024,53
508,23	3622,96
508,34	4122,15
508,44	2972,35
508,54	3024,78
508,64	3784,76
508,74	2649,20
508,85	3239,01
508,95	3614,14
509,05	2767,61
509,15	3425,90
509,26	4168,70
509,36	2993,14
509,46	3858,66
509,56	2817,78
509,66	3672,22
509,77	2996,98
509,87	3335,28
509,97	3607,59
510,07	3821,59
510,17	2529,43
510,28	7354,83
510,38	4871,51
510,48	3287,60
510,58	4277,40
510,68	3864,08
510,78	3784,31
510,89	3203,31
510,99	2607,84
511,09	4748,35
511,19	4443,95
511,29	2812,58
511,39	4977,95
511,50	5179,30
511,60	2782,98
511,70	4541,35
511,80	4836,93
511,90	5128,45
512,00	3641,94
512,11	2986,14
512,21	3850,52
512,31	2743,43
512,41	5797,14
512,51	3951,31
512,61	6952,81
512,71	3174,61
512,82	3203,76
512,92	2454,62
513,02	4262,03
513,12	3447,37
513,22	3188,84
513,32	4756,94
513,42	3967,81
513,53	5008,91
513,63	4285,31
513,73	4649,82
513,83	2789,76
513,93	4286,21
514,03	4448,02
514,13	5700,42
514,23	3038,79
514,33	3408,50
514,44	3415,73
514,54	3260,48
514,64	6316,67
514,74	3419,57
514,84	3331,66
514,94	4622,93
515,04	4517,62
515,14	3959,67
515,24	4231,08
515,34	4002,15
515,44	2484,45
515,55	2476,09
515,65	4341,13
515,75	3156,53
515,85	3391,78
515,95	4434,46
516,05	5501,78
516,15	4130,06
516,25	2841,51
516,35	3054,38
516,45	3128,73
516,55	3068,85
516,65	3536,86
516,75	6657,90
516,85	4373,90
516,95	4765,30
517,05	5104,05
517,16	2830,66
517,26	7520,71
517,36	3168,96
517,46	2627,50
517,56	3973,68
517,66	3528,72
517,76	3146,36
517,86	3165,79
517,96	4281,70
518,06	2913,37
518,16	3021,84
518,26	4155,60
518,36	2907,95
518,46	3314,72
518,56	4644,40
518,66	4988,34
518,76	3805,55
518,86	4905,63
518,96	2991,79
519,06	3236,53
519,16	4281,47
519,26	3932,10
519,36	4297,97
519,46	3806,68
519,56	5524,15
519,66	6693,84
519,76	3147,04
519,86	3210,76
519,96	3937,30
520,06	3510,19
520,16	6192,38
520,26	4061,59
520,36	3230,88
520,46	3257,54
520,56	3144,32
520,66	3373,02
520,76	3098,90
520,86	3441,72
520,96	5312,18
521,06	4261,13
521,16	2900,26
521,26	3500,92
521,35	4368,92
521,45	2745,92
521,55	3295,96
521,65	4286,21
521,75	3197,20
521,85	2494,62
521,95	3651,20
522,05	2667,50
522,15	2936,19
522,25	23342,66
522,35	5052,97
522,45	3390,65
522,55	4726,20
522,65	3686,00
522,75	2994,27
522,85	3199,24
522,94	3459,12
523,04	4434,46
523,14	3947,47
523,24	2870,88
523,34	3019,81
523,44	3821,82
523,54	3107,94
523,64	2928,96
523,74	5747,19
523,84	4481,92
523,94	4144,07
524,03	2698,23
524,13	4008,71
524,23	4058,42
524,33	2931,90
524,43	3481,26
524,53	3682,62
524,63	3073,59
524,73	3436,97
524,83	2792,47
524,92	3420,48
525,02	2738,69
525,12	4601,23
525,22	3705,89
525,32	2898,00
525,42	5084,61
525,52	3726,00
525,61	4227,01
525,71	2554,74
525,81	4071,08
525,91	2866,82
526,01	3816,40
526,11	3929,61
526,21	4632,42
526,30	4109,95
526,40	3154,95
526,50	4121,93
526,60	4739,99
526,70	4553,33
526,80	4330,28
526,89	3408,27
526,99	2996,76
527,09	3898,65
527,19	4081,02
527,29	4616,60
527,39	3619,79
527,48	4212,54
527,58	4150,63
527,68	2794,05
527,78	5292,52
527,88	6699,03
527,97	3663,41
528,07	2987,49
528,17	4993,54
528,27	5231,50
528,37	3587,70
528,46	3064,10
528,56	6015,89
528,66	4559,20
528,76	2703,43
528,86	4866,09
528,95	3002,41
529,05	3833,80
529,15	3910,63
529,25	4716,03
529,35	4831,06
529,44	4502,48
529,54	5555,33
529,64	4415,48
529,74	3522,85
529,83	2945,23
529,93	3364,43
530,03	4190,62
530,13	3839,45
530,22	5309,01
530,32	5170,71
530,42	4731,63
530,52	2525,58
530,61	4759,20
530,71	2846,93
530,81	4820,44
530,91	3653,69
531,00	3609,17
531,10	3563,30
531,20	4481,01
531,30	3950,63
531,39	4560,33
531,49	5134,78
531,59	11124,23
531,69	10841,97
531,78	10483,57
531,88	12173,01
531,98	12512,21
532,07	10429,56
532,17	10579,83
532,27	9682,68
532,37	6245,71
532,46	5308,34
532,56	4342,94
532,66	2987,49
532,75	3698,43
532,85	3979,78
532,95	3646,68
533,04	3685,33
533,14	4090,29
533,24	4532,08
533,34	3320,14
533,43	4617,51
533,53	2605,36
533,63	4247,12
533,72	3490,98
533,82	2947,04
533,92	2927,83
534,01	7696,75
534,11	8536,95
534,21	4471,52
534,30	3401,49
534,40	3638,55
534,50	2639,70
534,59	3296,64
534,69	2946,36
534,79	3903,17
534,88	5622,90
534,98	4984,28
535,08	2435,87
535,17	4546,77
535,27	3424,54
535,36	3047,60
535,46	4259,32
535,56	2832,02
535,65	4321,92
535,75	4819,31
535,85	3976,62
535,94	3222,74
536,04	3641,26
536,14	4573,21
536,23	5581,55
536,33	3251,67
536,42	3994,70
536,52	3476,29
536,62	2626,37
536,71	4161,02
536,81	3764,19
536,90	3779,34
537,00	3957,18
537,10	3102,52
537,19	3820,24
537,29	4378,64
537,38	5095,46
537,48	3711,99
537,58	3708,60
537,67	3055,29
537,77	3448,72
537,86	3266,58
537,96	5337,26
538,06	3504,77
538,15	2916,08
538,25	6377,46
538,34	7158,91
538,44	6459,27
538,53	4392,43
538,63	5369,35
538,73	4578,18
538,82	3756,51
538,92	3517,42
539,01	6633,72
539,11	2853,03
539,20	7041,40
539,30	4393,56
539,39	3285,79
539,49	4422,03
539,59	4613,66
539,68	7450,20
539,78	7244,10
539,87	4640,10
539,97	4831,51
540,06	4854,79
540,16	3199,24
540,25	4641,91
540,35	6169,33
540,44	4788,35
540,54	6392,37
540,63	4340,68
540,73	3615,50
540,82	4870,38
540,92	3502,73
541,01	5519,40
541,11	5814,99
541,20	4402,14
541,30	4426,78
541,39	4961,45
541,49	4497,06
541,58	6388,76
541,68	6057,92
541,77	4544,97
541,87	3187,26
541,96	3126,47
542,06	5320,31
542,15	4650,95
542,25	6434,41
542,34	5273,53
542,44	3585,67
542,53	4106,56
542,63	4770,50
542,72	3726,23
542,82	3687,13
542,91	4281,92
543,01	3518,33
543,10	5199,19
543,20	4223,62
543,29	4613,21
543,38	3498,21
543,48	4048,93
543,57	3803,06
543,67	3727,36
543,76	4044,19
543,86	3900,91
543,95	4926,42
544,05	6837,56
544,14	7861,49
544,23	4445,76
544,33	3882,84
544,42	5240,99
544,52	4036,50
544,61	4587,45
544,71	6593,50
544,80	7268,74
544,89	6510,11
544,99	4992,86
545,08	6285,03
545,18	3596,29
545,27	8536,27
545,36	7015,63
545,46	5872,61
545,55	4794,45
545,65	5160,77
545,74	4610,05
545,84	3868,60
545,93	5046,65
546,02	4434,46
546,12	5859,96
546,21	5573,41
546,30	4728,46
546,40	4944,95
546,49	3764,42
546,59	4913,09
546,68	3962,61
546,77	5744,93
546,87	4766,65
546,96	5791,49
547,05	5003,26
547,15	3751,31
547,24	4416,38
547,34	3777,53
547,43	4501,58
547,52	5925,95
547,62	5022,24
547,71	5336,81
547,80	5265,62
547,90	4371,86
547,99	6991,68
548,08	4942,92
548,18	3096,87
548,27	3577,99
548,36	3497,99
548,46	3796,74
548,55	3744,31
548,64	4635,13
548,74	3594,48
548,83	4617,28
548,92	6935,64
549,02	3715,61
549,11	8184,64
549,20	5313,31
549,30	4036,50
549,39	4567,11
549,48	4888,46
549,58	3411,21
549,67	5105,85
549,76	4518,30
549,85	3356,75
549,95	4227,23
550,04	5426,30
550,13	3329,86
550,23	5248,00
550,32	3670,41
550,41	3528,95
550,50	4822,70
550,60	6751,46
550,69	4389,49
550,78	3232,91
550,88	5560,76
550,97	5308,56
551,06	4305,42
551,15	4507,23
551,25	6642,31
551,34	3537,31
551,43	4163,96
551,52	4914,22
551,62	5779,96
551,71	5957,13
551,80	5670,81
551,89	4774,34
551,99	4257,06
552,08	4361,92
552,17	3860,92
552,26	5016,82
552,36	3243,08
552,45	3389,06
552,54	3239,69
552,63	5125,74
552,73	7360,26
552,82	7082,53
552,91	4738,63
553,00	8667,57
553,10	4680,78
553,19	7253,59
553,28	4161,92
553,37	5670,36
553,46	3598,78
553,56	5666,74
553,65	3733,69
553,74	3477,65
553,83	5031,73
553,92	4364,86
554,02	4996,93
554,11	4264,52
554,20	3443,53
554,29	6979,70
554,38	4087,80
554,48	4348,81
554,57	3930,29
554,66	4104,75
554,75	5268,79
554,84	5386,07
554,94	4890,72
555,03	3923,74
555,12	3374,60
555,21	3513,81
555,30	7502,63
555,39	3700,47
555,49	3957,64
555,58	4996,25
555,67	5558,05
555,76	6083,46
555,85	3619,34
555,94	3526,91
556,03	4220,68
556,13	4513,55
556,22	4332,54
556,31	4701,80
556,40	3302,74
556,49	5915,32
556,58	4393,78
556,67	4505,87
556,77	4087,58
556,86	6623,33
556,95	5481,66
557,04	7049,76
557,13	7277,77
557,22	6371,13
557,31	5014,78
557,40	4458,41
557,50	6737,45
557,59	3748,38
557,68	3851,88
557,77	6303,11
557,86	4930,27
557,95	4746,54
558,04	4518,98
558,13	4417,06
558,22	5026,99
558,31	4326,89
558,41	3481,72
558,50	5510,36
558,59	5747,65
558,68	6217,69
558,77	5840,30
558,86	3457,31
558,95	3350,42
559,04	4906,99
559,13	6363,67
559,22	3930,52
559,31	4253,67
559,40	3785,44
559,49	4044,19
559,59	5701,09
559,68	3367,82
559,77	6764,57
559,86	7445,00
559,95	4753,10
560,04	4453,89
560,13	5151,73
560,22	8043,40
560,31	5118,28
560,40	5049,36
560,49	3378,22
560,58	4086,22
560,67	3601,26
560,76	3634,71
560,85	3180,26
560,94	6315,09
561,03	3906,79
561,12	9838,39
561,21	8451,76
561,30	4607,34
561,39	4432,88
561,48	4707,90
561,57	3463,41
561,66	5425,39
561,75	7357,77
561,84	4204,18
561,93	4190,40
562,02	4418,41
562,11	3601,71
562,20	3808,49
562,29	4661,80
562,38	3178,67
562,47	5893,86
562,56	4934,11
562,65	4030,63
562,74	4413,90
562,83	9591,16
562,92	5329,80
563,01	6878,46
563,10	3598,32
563,19	4745,19
563,28	10344,13
563,37	6292,26
563,46	3620,92
563,55	4187,01
563,64	9382,13
563,73	3660,02
563,82	5208,22
563,91	7343,99
564,00	4632,42
564,09	3641,26
564,18	4852,53
564,27	3361,72
564,35	5207,77
564,44	4664,96
564,53	5830,13
564,62	5726,18
564,71	5022,92
564,80	5107,66
564,89	5377,49
564,98	20065,69
565,07	5506,75
565,16	3716,06
565,25	13135,25
565,34	4219,78
565,43	4309,72
565,51	3850,29
565,60	7075,29
565,69	4060,23
565,78	7324,33
565,87	3164,89
565,96	2939,13
566,05	5488,67
566,14	6736,77
566,23	5273,53
566,32	7087,50
566,40	6021,31
566,49	7135,41
566,58	4062,04
566,67	4681,23
566,76	3780,69
566,85	4090,51
566,94	4859,76
567,03	5600,53
567,11	4410,73
567,20	4459,09
567,29	6649,77
567,38	5506,30
567,47	3455,28
567,56	4722,81
567,65	4888,91
567,73	3584,76
567,82	3604,42
567,91	5195,34
568,00	4589,26
568,09	5773,86
568,18	3918,77
568,27	4526,21
568,35	4877,39
568,44	5758,49
568,53	5133,20
568,62	3648,72
568,71	3558,78
568,80	4024,75
568,88	5847,08
568,97	6842,98
569,06	3516,52
569,15	4028,82
569,24	5339,07
569,32	5587,88
569,41	4743,83
569,50	3494,37
569,59	3270,20
569,68	3552,45
569,76	4595,36
569,85	5460,20
569,94	6354,64
570,03	3822,72
570,12	5564,37
570,20	4713,55
570,29	5367,09
570,38	5134,78
570,47	5157,83
570,56	3353,58
570,64	4251,87
570,73	4415,48
570,82	6998,46
570,91	5930,01
570,99	3552,45
571,08	3434,26
571,17	3951,76
571,26	6352,60
571,34	3959,22
571,43	5024,73
571,52	5368,22
571,61	3632,22
571,69	3493,69
571,78	5769,34
571,87	6256,78
571,96	6069,67
572,04	5816,12
572,13	5854,31
572,22	3782,50
572,31	3452,34
572,39	3768,04
572,48	4880,78
572,57	4153,56
572,66	3796,51
572,74	3230,65
572,83	5147,66
572,92	4213,67
573,00	3489,40
573,09	5399,86
573,18	6017,02
573,27	5624,48
573,35	3822,72
573,44	3462,28
573,53	4476,94
573,61	4547,68
573,70	5322,57
573,79	3790,41
573,87	7711,21
573,96	3943,85
574,05	4404,18
574,14	4396,72
574,22	3885,10
574,31	5713,52
574,40	3381,83
574,48	4594,00
574,57	4769,14
574,66	4303,62
574,74	4453,44
574,83	6293,85
574,92	6363,45
575,00	4276,50
575,09	6221,98
575,18	4080,80
575,26	7004,11
575,35	3997,64
575,43	4180,91
575,52	5694,77
575,61	5283,93
575,69	5895,21
575,78	3947,24
575,87	8014,48
575,95	5369,58
576,04	3892,78
576,13	5027,44
576,21	4110,17
576,30	5135,23
576,38	4967,10
576,47	4218,42
576,56	4111,98
576,64	4464,74
576,73	5946,06
576,82	5568,22
576,90	4826,54
576,99	4871,96
577,07	4200,12
577,16	4447,11
577,25	5432,63
577,33	8319,33
577,42	4941,34
577,50	4008,03
577,59	5389,46
577,68	6476,21
577,76	4701,12
577,85	4531,63
577,93	4992,86
578,02	5100,66
578,10	4774,79
578,19	4943,82
578,28	4350,17
578,36	4603,27
578,45	4887,56
578,53	3720,13
578,62	4050,51
578,70	3880,35
578,79	4495,93
578,88	4780,89
578,96	3803,52
579,05	3870,18
579,13	7672,34
579,22	5302,23
579,30	4300,68
579,39	5480,76
579,47	7239,58
579,56	4208,02
579,64	12087,82
579,73	4551,74
579,82	5398,05
579,90	3911,08
579,99	4085,77
580,07	5334,55
580,16	4834,45
580,24	5963,68
580,33	3276,98
580,41	4886,88
580,50	3646,46
580,58	4610,27
580,67	4320,56
580,75	4673,78
580,84	4602,59
580,92	3684,87
581,01	7392,12
581,09	3853,68
581,18	4386,33
581,26	3918,54
581,35	3475,16
581,43	5897,25
581,52	4617,73
581,60	5144,72
581,69	4512,42
581,77	4983,60
581,86	5138,62
581,94	4394,69
582,02	6101,99
582,11	3614,37
582,19	6737,45
582,28	8101,48
582,36	7669,18
582,45	7791,89
582,53	3975,04
582,62	4029,05
582,70	3913,57
582,79	5332,29
582,87	3757,42
582,96	5225,63
583,04	6906,49
583,12	5076,48
583,21	4935,69
583,29	5276,02
583,38	5286,87
583,46	4520,11
583,55	4942,02
583,63	3662,73
583,71	5431,27
583,80	4828,57
583,88	3583,41
583,97	8836,83
584,05	5374,55
584,13	5966,40
584,22	5612,06
584,30	4264,29
584,39	5703,35
584,47	6156,90
584,55	3977,75
584,64	5050,49
584,72	4954,45
584,81	3593,35
584,89	3912,21
584,97	3805,32
585,06	3784,76
585,14	4715,13
585,23	5179,75
585,31	3454,37
585,39	4365,76
585,48	5023,14
585,56	3533,47
585,64	5243,03
585,73	4726,88
585,81	4695,92
585,90	5704,48
585,98	4244,63
586,06	4435,82
586,15	6868,97
586,23	3504,09
586,31	4006,00
586,40	3684,87
586,48	6494,07
586,56	3934,59
586,65	3479,91
586,73	3821,82
586,81	5459,97
586,90	4375,25
586,98	3392,00
587,06	3451,89
587,15	4385,20
587,23	4253,22
587,31	4615,02
587,40	3966,90
587,48	3668,38
587,56	6322,55
587,65	8876,15
587,73	5714,88
587,81	5111,05
587,90	7610,87
587,98	4775,47
588,06	3909,05
588,14	3808,71
588,23	4196,05
588,31	6802,98
588,39	5697,48
588,48	4440,56
588,56	3970,07
588,64	5236,70
588,72	4967,78
588,81	4215,26
588,89	4520,79
588,97	4714,90
589,06	6516,44
589,14	6354,41
589,22	5079,19
589,30	4452,31
589,39	3969,84
589,47	5691,83
589,55	7338,79
589,63	4985,18
589,72	4193,11
589,80	4123,51
589,88	5352,40
589,96	5963,23
590,05	4855,01
590,13	4972,30
590,21	6149,89
590,29	6804,11
590,38	5683,69
590,46	6419,94
590,54	3610,98
590,62	4006,00
590,71	6069,44
590,79	6525,70
590,87	3460,70
590,95	3792,67
591,03	4380,45
591,12	5011,17
591,20	4231,08
591,28	7422,40
591,36	5237,60
591,44	4450,50
591,53	4700,67
591,61	4531,18
591,69	3953,79
591,77	4895,24
591,85	4904,73
591,94	3951,53
592,02	4180,23
592,10	5883,24
592,18	5836,23
592,26	4615,47
592,34	3710,64
592,43	3355,62
592,51	3561,94
592,59	3991,53
592,67	5636,91
592,75	4047,80
592,84	4478,07
592,92	5994,64
593,00	4168,03
593,08	4273,11
593,16	3710,41
593,24	4092,77
593,32	5583,13
593,41	4763,94
593,49	3497,08
593,57	4008,93
593,65	3919,67
593,73	5101,11
593,81	5265,62
593,89	6054,08
593,98	4452,31
594,06	3772,56
594,14	3779,56
594,22	4004,41
594,30	4081,47
594,38	4348,59
594,46	6038,71
594,54	5898,15
594,62	5671,26
594,71	4424,06
594,79	3985,88
594,87	4471,97
594,95	4509,71
595,03	6074,42
595,11	4614,12
595,19	7025,80
595,27	4457,74
595,35	3985,66
595,43	3894,36
595,52	4134,13
595,60	4231,30
595,68	7654,71
595,76	3669,28
595,84	5424,94
595,92	3763,52
596,00	6598,70
596,08	6010,24
596,16	4738,86
596,24	4525,76
596,32	4200,57
596,40	5359,41
596,48	5326,19
596,56	5250,71
596,64	3708,38
596,73	6600,28
596,81	4008,26
596,89	5039,87
596,97	3362,17
597,05	9664,38
597,13	4309,49
597,21	3445,56
597,29	4259,78
597,37	6292,72
597,45	5266,98
597,53	3936,85
597,61	4837,61
597,69	5479,18
597,77	4365,31
597,85	4016,62
597,93	4712,87
598,01	4297,29
598,09	5659,96
598,17	4497,51
598,25	4701,12
598,33	3460,02
598,41	4244,41
598,49	3482,62
598,57	3820,46
598,65	4327,34
598,73	4597,39
598,81	4962,81
598,89	4393,56
598,97	3655,05
599,05	6391,47
599,13	4231,30
599,21	3722,16
599,29	4661,80
599,37	4252,77
599,45	3906,11
599,53	6862,87
599,61	3898,65
599,69	5097,49
599,77	4302,94
599,85	3812,10
599,93	4116,95
600,00	3576,86
600,08	5277,38
600,16	3261,84
600,24	3563,52
600,32	6825,36
600,40	7313,93
600,48	6425,59
600,56	6058,15
600,64	5962,78
600,72	4412,09
600,80	4625,87
600,88	4338,42
600,96	6139,73
601,04	3533,92
601,12	3847,13
601,19	3113,14
601,27	4013,00
601,35	4499,54
601,43	3840,80
601,51	4786,77
601,59	3846,68
601,67	3472,90
601,75	3973,68
601,83	4624,74
601,91	3352,68
601,98	3557,87
602,06	5888,43
602,14	4803,04
602,22	5126,19
602,30	5609,12
602,38	4711,97
602,46	3628,38
602,54	6011,82
602,61	5062,01
602,69	4838,06
602,77	3335,28
602,85	3577,53
602,93	3654,37
603,01	4593,55
603,09	6047,30
603,17	4084,41
603,24	5074,44
603,32	3403,07
603,40	4542,25
603,48	5232,40
603,56	3295,96
603,64	4545,64
603,71	3637,87
603,79	4403,05
603,87	5501,55
603,95	8228,03
604,03	4248,70
604,11	5882,56
604,18	4842,58
604,26	3784,08
604,34	3363,75
604,42	4760,33
604,50	3679,45
604,57	3685,55
604,65	4216,61
604,73	4341,35
604,81	4656,83
604,89	3600,13
604,96	4107,69
605,04	5104,72
605,12	4113,79
605,20	5460,42
605,28	6499,94
605,35	4575,25
605,43	4742,25
605,51	4111,76
605,59	5573,86
605,67	7450,88
605,74	4518,30
605,82	4594,46
605,90	3585,89
605,98	5253,87
606,05	4383,84
606,13	5229,92
606,21	4639,20
606,29	4188,36
606,36	4393,78
606,44	3819,56
606,52	4533,89
606,60	4183,39
606,67	3280,37
606,75	3886,90
606,83	3081,95
606,91	5612,73
606,98	3636,51
607,06	4430,39
607,14	4103,85
607,22	4062,94
607,29	3747,70
607,37	4417,06
607,45	5017,95
607,52	5412,97
607,60	5305,62
607,68	4262,49
607,76	5037,38
607,83	3103,42
607,91	5065,63
607,99	4852,75
608,06	4737,73
608,14	4005,09
608,22	4269,49
608,30	6227,63
608,37	3445,11
608,45	2957,21
608,53	4623,61
608,60	4704,96
608,68	3699,56
608,76	4063,85
608,83	5333,87
608,91	3520,81
608,99	5366,19
609,06	4744,06
609,14	5144,50
609,22	4190,62
609,29	3716,74
609,37	3245,79
609,45	5640,08
609,52	3523,30
609,60	3559,00
609,68	3726,00
609,75	4338,64
609,83	3063,20
609,91	7225,57
609,98	4020,91
610,06	3834,25
610,13	5045,29
610,21	4562,37
610,29	4476,94
610,36	3153,36
610,44	3762,39
610,52	4293,22
610,59	3460,93
610,67	3372,79
610,74	4314,24
610,82	3570,75
610,90	4824,51
610,97	3891,42
611,05	5024,27
611,13	4525,76
611,20	6547,85
611,28	3647,36
611,35	4227,69
611,43	3067,04
611,51	4789,25
611,58	4519,20
611,66	6266,95
611,73	3539,79
611,81	6112,16
611,88	4671,52
611,96	5341,55
612,04	3461,83
612,11	3413,02
612,19	6632,82
612,26	3929,84
612,34	4322,60
612,41	4100,01
612,49	2990,66
612,57	3061,84
612,64	3355,84
612,72	6083,46
612,79	7358,68
612,87	3078,79
612,94	2963,31
613,02	4377,74
613,09	4022,49
613,17	4916,48
613,24	3831,99
613,32	5378,39
613,40	3763,74
613,47	4052,55
613,55	3258,67
613,62	5596,24
613,70	5867,64
613,77	3578,89
613,85	5600,76
613,92	3977,97
614,00	3270,65
614,07	3788,83
614,15	2930,32
614,22	3226,36
614,30	4613,89
614,37	3181,39
614,45	3796,74
614,52	3405,33
614,60	3832,22
614,67	5167,32
614,75	2961,50
614,82	4897,05
614,90	3622,96
614,97	3226,58
615,05	6358,70
615,12	5317,37
615,20	4199,44
615,27	4177,74
615,34	4046,00
615,42	3272,00
615,49	4057,97
615,57	3114,27
615,64	3368,50
615,72	3577,31
615,79	3550,19
615,87	4605,30
615,94	5779,51
616,02	4397,40
616,09	5666,97
616,16	4641,91
616,24	4192,66
616,31	3204,44
616,39	6969,99
616,46	5550,14
616,54	4357,63
616,61	6590,11
616,68	3252,57
616,76	3911,31
616,83	4721,23
616,91	3558,55
616,98	3322,85
617,06	5450,03
617,13	3409,18
617,20	3611,20
617,28	4054,13
617,35	3170,54
617,43	5620,64
617,50	3590,19
617,57	3943,85
>>>>>End Processed Spectral Data<<<<<
