SpectraSuite Datei
++++++++++++++++++++++++++++++++++++
Datum: Sun Jan 04 05:49:14 CET 2004
Benutzer: H. Stützler
Dark-Spektrum vorhanden: Nein
Referenz-Spektrum vorhanden: Nein
Zahl der probierten Teilspektren: 1
Spektrometer: USB2+H04734
Integrationszeit (usec): 1000000 (USB2+H04734)
Spektren Durchschnitt berechnet: 10 (USB2+H04734)
Boxcar Glättung: 0 (USB2+H04734)
Dunkelstromkorrektur: Nein (USB2+H04734)
Puls/Lampe aktiviert: Nein (USB2+H04734)
Correct for Detector Non-linearity: Nein (USB2+H04734)
Streulichtkorrektur: Nein (USB2+H04734)
Anzahl Pixel in verarbeitetem Spektrum: 2048
>>>>>Begin Processed Spectral Data<<<<<
418,45	1242,68
418,57	1242,68
418,69	1242,68
418,80	1124,94
418,92	1121,78
419,04	1359,06
419,16	1202,00
419,28	1236,80
419,40	1180,53
419,52	1169,01
419,64	1174,66
419,75	1189,35
419,87	1186,41
419,99	1193,19
420,11	1201,55
420,23	1216,69
420,35	1258,72
420,47	1242,68
420,58	1237,48
420,70	1274,54
420,82	1283,58
420,94	1301,89
421,06	1390,25
421,18	1324,26
421,29	1317,71
421,41	1308,21
421,53	1329,00
421,65	1386,86
421,77	1390,47
421,89	1370,59
422,00	1470,02
422,12	1371,04
422,24	1351,38
422,36	1443,58
422,48	1442,90
422,59	1387,76
422,71	1439,96
422,83	1369,46
422,95	1388,21
423,07	1421,88
423,18	1475,44
423,30	1459,62
423,42	1377,14
423,54	1400,87
423,66	1401,09
423,77	1429,34
423,89	1408,10
424,01	1376,01
424,13	1363,13
424,25	1353,86
424,36	1423,01
424,48	1402,22
424,60	1369,91
424,72	1463,46
424,84	1373,75
424,95	1455,78
425,07	1375,11
425,19	1405,84
425,31	1405,16
425,42	1363,81
425,54	1401,77
425,66	1383,69
425,78	1372,85
425,89	1393,41
426,01	1388,21
426,13	1370,36
426,25	1412,39
426,36	1373,07
426,48	1394,54
426,60	1433,41
426,72	1381,43
426,83	1434,09
426,95	1390,92
427,07	1390,25
427,19	1490,81
427,30	1406,06
427,42	1339,40
427,54	1382,56
427,66	1388,44
427,77	1353,86
427,89	1403,80
428,01	1395,44
428,12	1399,74
428,24	1347,54
428,36	1355,90
428,48	1334,65
428,59	1357,25
428,71	1405,39
428,83	1359,29
428,94	1363,81
429,06	1385,05
429,18	1389,34
429,30	1399,51
429,41	1374,88
429,53	1434,54
429,65	1414,65
429,76	1427,99
429,88	1384,37
430,00	1394,09
430,11	1440,64
430,23	1382,79
430,35	1456,46
430,47	1362,68
430,58	1371,04
430,70	1414,65
430,82	1415,78
430,93	1550,02
431,05	1402,22
431,17	1382,34
431,28	1452,39
431,40	1349,34
431,52	1457,59
431,63	1348,21
431,75	1349,80
431,87	1359,29
431,98	1411,71
432,10	1389,34
432,22	1381,66
432,33	1456,68
432,45	1374,20
432,56	1397,93
432,68	1418,49
432,80	1381,43
432,91	1421,43
433,03	1386,86
433,15	1443,13
433,26	1376,46
433,38	1374,43
433,50	1324,03
433,61	1440,64
433,73	1454,65
433,84	1386,40
433,96	1329,46
434,08	1367,20
434,19	1381,43
434,31	1360,42
434,43	1412,39
434,54	1382,11
434,66	1349,34
434,77	1354,54
434,89	1427,08
435,01	1398,61
435,12	1384,37
435,24	1386,40
435,35	1359,29
435,47	1503,01
435,59	1374,43
435,70	1353,86
435,82	1401,77
435,93	1434,31
436,05	1394,31
436,17	1392,51
436,28	1411,26
436,40	1413,07
436,51	1361,09
436,63	1367,65
436,74	1439,06
436,86	1473,41
436,98	1617,81
437,09	1383,01
437,21	1437,70
437,32	1365,61
437,44	1434,99
437,55	1389,57
437,67	1763,57
437,79	1523,58
437,90	1422,11
438,02	1359,96
438,13	2218,25
438,25	1494,88
438,36	1440,41
438,48	1415,56
438,59	1443,13
438,71	1405,61
438,83	1362,90
438,94	1362,68
439,06	1456,23
439,17	1437,70
439,29	1374,88
439,40	1412,62
439,52	1377,82
439,63	1417,14
439,75	1359,29
439,86	1367,42
439,98	1400,87
440,09	1411,94
440,21	1388,21
440,32	1387,31
440,44	1333,52
440,55	1380,53
440,67	1362,68
440,78	1432,96
440,90	1359,74
441,01	1371,26
441,13	1373,98
441,24	1392,73
441,36	1461,88
441,47	1370,36
441,59	1416,23
441,70	1350,92
441,82	1423,47
441,93	1404,93
442,05	1354,09
442,16	1376,46
442,28	1333,98
442,39	1376,46
442,51	1431,83
442,62	1391,15
442,74	1445,16
442,85	1383,69
442,97	1496,91
443,08	1450,13
443,20	1425,05
443,31	1405,61
443,43	1376,91
443,54	1438,83
443,66	1372,17
443,77	1373,98
443,88	1350,25
444,00	1423,01
444,11	1414,65
444,23	1433,63
444,34	1385,05
444,46	1349,57
444,57	1442,45
444,69	1449,00
444,80	1411,94
444,91	1536,91
445,03	1371,26
445,14	1437,25
445,26	1348,67
445,37	1353,18
445,49	1371,04
445,60	1465,95
445,71	1470,47
445,83	1374,88
445,94	1372,17
446,06	1415,56
446,17	1373,07
446,29	1359,29
446,40	1389,57
446,51	1439,96
446,63	1388,44
446,74	1357,93
446,86	1375,11
446,97	1451,49
447,08	1371,26
447,20	1403,35
447,31	1360,19
447,43	1368,10
447,54	1407,87
447,65	1422,34
447,77	1362,90
447,88	1376,01
448,00	1397,93
448,11	1343,47
448,22	1374,88
448,34	1391,15
448,45	1369,46
448,56	1404,48
448,68	1393,64
448,79	1442,22
448,90	1417,82
449,02	1388,66
449,13	1371,72
449,25	1393,86
449,36	1358,61
449,47	1373,30
449,59	1459,40
449,70	1384,60
449,81	1401,09
449,93	1377,14
450,04	1370,13
450,15	1381,66
450,27	1399,06
450,38	1409,00
450,49	1366,97
450,61	1463,69
450,72	1376,69
450,83	1418,95
450,95	1377,36
451,06	1405,61
451,17	1461,43
451,29	1418,04
451,40	1364,26
451,51	1340,98
451,63	1343,24
451,74	1436,35
451,85	1379,85
451,97	1451,49
452,08	1412,62
452,19	1377,59
452,31	1457,14
452,42	1398,61
452,53	1456,68
452,65	1449,68
452,76	1351,60
452,87	1363,81
452,98	1351,38
453,10	1362,90
453,21	1350,25
453,32	1393,18
453,44	1365,61
453,55	1341,66
453,66	1519,73
453,77	1424,82
453,89	1430,70
454,00	1481,99
454,11	1401,77
454,23	1380,30
454,34	1413,07
454,45	1336,24
454,56	1438,61
454,68	1499,62
454,79	1395,44
454,90	1405,84
455,01	1349,80
455,13	1350,47
455,24	1468,66
455,35	1373,75
455,46	1342,11
455,58	1330,59
455,69	1445,84
455,80	1431,83
455,91	1340,98
456,03	1377,82
456,14	1412,17
456,25	1386,18
456,36	1338,04
456,48	1373,75
456,59	1446,29
456,70	1367,65
456,81	1428,66
456,92	1475,22
457,04	1432,05
457,15	1510,92
457,26	1364,48
457,37	1371,49
457,49	1353,41
457,60	1338,95
457,71	1387,31
457,82	1425,05
457,93	1407,19
458,05	1449,00
458,16	1356,80
458,27	1380,98
458,38	1375,56
458,49	1414,20
458,61	1379,85
458,72	1400,87
458,83	1422,79
458,94	1410,81
459,05	1431,60
459,17	1631,37
459,28	1363,35
459,39	1385,27
459,50	1354,54
459,61	1441,77
459,72	1341,21
459,84	1357,03
459,95	1389,34
460,06	1604,03
460,17	1378,95
460,28	1394,77
460,39	1380,98
460,51	1409,91
460,62	1387,53
460,73	1375,56
460,84	1324,03
460,95	1456,46
461,06	1452,62
461,18	1442,90
461,29	1449,91
461,40	1384,82
461,51	1422,11
461,62	1524,71
461,73	1385,05
461,84	1418,72
461,96	1413,97
462,07	1428,66
462,18	1366,52
462,29	1406,29
462,40	1438,83
462,51	1384,60
462,62	1455,55
462,73	1463,46
462,85	1420,53
462,96	1427,08
463,07	1426,86
463,18	1508,21
463,29	1421,66
463,40	1386,63
463,51	1359,06
463,62	1357,70
463,73	1426,86
463,85	1362,68
463,96	1388,21
464,07	1372,39
464,18	1376,69
464,29	1367,87
464,40	1462,11
464,51	1401,09
464,62	1392,28
464,73	1354,09
464,84	1425,95
464,95	1398,38
465,06	1370,81
465,18	1335,11
465,29	1407,19
465,40	1378,49
465,51	1391,83
465,62	1427,31
465,73	1401,09
465,84	1411,94
465,95	1400,19
466,06	1368,78
466,17	1380,08
466,28	1367,87
466,39	1450,81
466,50	1364,03
466,61	1330,81
466,72	1403,13
466,83	1356,57
466,95	1346,41
467,06	1333,52
467,17	1372,39
467,28	1364,26
467,39	1394,54
467,50	1403,58
467,61	1350,25
467,72	1344,82
467,83	1348,89
467,94	1400,42
468,05	1344,82
468,16	1405,39
468,27	1372,17
468,38	1339,17
468,49	1438,83
468,60	1379,85
468,71	1432,28
468,82	1416,91
468,93	1416,69
469,04	1494,42
469,15	1399,06
469,26	1375,56
469,37	1390,25
469,48	1451,26
469,59	1382,34
469,70	1356,80
469,81	1393,41
469,92	1322,45
470,03	1415,56
470,14	1358,61
470,25	1430,24
470,36	1384,82
470,47	1333,75
470,58	1331,04
470,69	1424,60
470,80	1419,85
470,91	1364,48
471,02	1359,29
471,13	1382,11
471,24	1414,88
471,35	1369,68
471,46	1475,89
471,56	1444,48
471,67	1441,54
471,78	1450,13
471,89	1333,30
472,00	1349,57
472,11	1414,65
472,22	1434,31
472,33	1383,69
472,44	1380,53
472,55	1359,96
472,66	1391,60
472,77	1380,08
472,88	1526,97
472,99	1450,13
473,10	1352,51
473,21	1387,76
473,32	1388,66
473,42	1375,78
473,53	1342,56
473,64	1413,97
473,75	1408,32
473,86	1388,44
473,97	1388,66
474,08	1416,69
474,19	1453,30
474,30	1524,25
474,41	1408,78
474,52	1376,69
474,62	1401,32
474,73	1375,11
474,84	1496,68
474,95	1415,56
475,06	1423,01
475,17	1370,36
475,28	1342,11
475,39	1408,32
475,50	1374,65
475,60	1354,77
475,71	1360,64
475,82	1420,53
475,93	1385,95
476,04	1434,09
476,15	1385,05
476,26	1387,76
476,37	1364,03
476,47	1365,84
476,58	1358,38
476,69	1346,18
476,80	1368,33
476,91	1392,73
477,02	1396,57
477,13	1393,41
477,23	1348,44
477,34	1402,67
477,45	1403,13
477,56	1395,22
477,67	1366,52
477,78	1396,80
477,89	1401,32
477,99	1361,77
478,10	1419,17
478,21	1415,56
478,32	1392,28
478,43	1360,42
478,54	1502,56
478,64	1430,92
478,75	1394,77
478,86	1365,39
478,97	1396,12
479,08	1374,43
479,18	1355,67
479,29	1367,65
479,40	1362,00
479,51	1352,28
479,62	1360,87
479,72	1358,83
479,83	1344,15
479,94	1383,69
480,05	1418,95
480,16	1375,78
480,26	1417,14
480,37	1342,79
480,48	1419,40
480,59	1401,77
480,70	1378,49
480,80	1388,21
480,91	1380,08
481,02	1350,70
481,13	1400,42
481,24	1398,61
481,34	1345,73
481,45	1475,22
481,56	1367,42
481,67	1359,96
481,77	1372,39
481,88	1383,69
481,99	1394,99
482,10	1394,54
482,20	1697,13
482,31	1374,88
482,42	1410,36
482,53	1370,13
482,63	1442,90
482,74	1419,85
482,85	1376,69
482,96	1372,39
483,06	1328,55
483,17	1403,13
483,28	1364,94
483,39	1379,17
483,49	1427,76
483,60	1518,60
483,71	1366,52
483,81	1416,91
483,92	1376,46
484,03	1377,14
484,14	1385,73
484,24	1348,89
484,35	1390,25
484,46	1404,71
484,57	1369,68
484,67	1389,12
484,78	1376,46
484,89	1495,55
484,99	1355,44
485,10	1382,79
485,21	1397,25
485,31	1399,51
485,42	1387,31
485,53	1366,29
485,63	1389,34
485,74	1489,90
485,85	1531,94
485,96	2032,26
486,06	1418,04
486,17	1385,73
486,28	1403,58
486,38	1359,29
486,49	1418,04
486,60	1348,67
486,70	1352,51
486,81	1374,88
486,92	1362,00
487,02	1386,86
487,13	1333,52
487,24	1350,25
487,34	1373,98
487,45	1472,28
487,56	1392,05
487,66	1363,81
487,77	1377,14
487,87	1367,65
487,98	1346,63
488,09	1376,69
488,19	1330,13
488,30	1508,89
488,41	1377,59
488,51	1351,38
488,62	1344,15
488,73	1347,76
488,83	1378,49
488,94	1410,13
489,04	1470,92
489,15	1357,25
489,26	1346,86
489,36	1394,77
489,47	1377,36
489,58	1360,19
489,68	1407,65
489,79	1376,91
489,89	1387,31
490,00	1362,22
490,11	1374,88
490,21	1415,10
490,32	1361,32
490,42	1386,63
490,53	1394,99
490,64	1349,34
490,74	1351,83
490,85	1357,03
490,95	1423,92
491,06	1393,64
491,16	1353,86
491,27	1404,71
491,38	1374,65
491,48	1488,10
491,59	1474,76
491,69	1392,96
491,80	1339,63
491,90	1447,87
492,01	1355,90
492,12	1406,29
492,22	1386,18
492,33	1399,51
492,43	1398,38
492,54	1353,86
492,64	1357,93
492,75	1394,99
492,86	1404,93
492,96	1386,18
493,07	1338,72
493,17	1410,58
493,28	1405,16
493,38	1378,04
493,49	1371,04
493,59	1417,14
493,70	1390,92
493,80	1360,64
493,91	1345,28
494,01	1359,51
494,12	1366,29
494,22	1454,88
494,33	1487,87
494,43	1465,50
494,54	1468,44
494,64	1392,28
494,75	1364,48
494,86	1436,12
494,96	1360,42
495,07	1380,08
495,17	1451,26
495,28	1386,40
495,38	1359,51
495,49	1373,98
495,59	1393,18
495,69	1379,17
495,80	1438,83
495,90	1372,85
496,01	1350,25
496,11	1406,06
496,22	1368,33
496,32	1365,84
496,43	1404,26
496,53	1384,37
496,64	1355,22
496,74	1404,26
496,85	1411,04
496,95	1392,73
497,06	1369,91
497,16	1408,32
497,27	1377,36
497,37	1435,67
497,48	1362,68
497,58	1370,36
497,68	1376,24
497,79	1450,58
497,89	1392,51
498,00	1368,78
498,10	1350,70
498,21	1422,11
498,31	1377,36
498,42	1346,18
498,52	1428,44
498,62	1383,47
498,73	1378,04
498,83	1408,55
498,94	1376,46
499,04	1449,23
499,15	1373,75
499,25	1370,36
499,35	1420,30
499,46	1472,96
499,56	1514,76
499,67	1413,52
499,77	1331,04
499,87	1356,35
499,98	1362,68
500,08	1332,85
500,19	1380,75
500,29	1376,46
500,39	1412,84
500,50	1422,79
500,60	1398,61
500,71	1382,79
500,81	1390,25
500,91	1341,66
501,02	1361,09
501,12	1400,87
501,22	1347,31
501,33	1390,92
501,43	1410,81
501,54	1336,46
501,64	1357,25
501,74	1360,64
501,85	1446,52
501,95	1338,72
502,05	1353,18
502,16	1379,62
502,26	1467,98
502,37	1430,47
502,47	1402,22
502,57	1363,35
502,68	1358,83
502,78	1352,28
502,88	1422,34
502,99	1373,30
503,09	1438,15
503,19	1347,54
503,30	1344,15
503,40	1373,30
503,50	1374,88
503,61	1364,71
503,71	1367,20
503,81	1389,57
503,92	1411,94
504,02	1438,83
504,12	1553,86
504,23	1463,69
504,33	1372,39
504,43	1364,94
504,54	1412,17
504,64	1440,87
504,74	1557,93
504,84	1380,30
504,95	1371,72
505,05	1324,94
505,15	1451,94
505,26	1358,61
505,36	1365,16
505,46	1359,74
505,56	1407,19
505,67	1395,90
505,77	1407,19
505,87	1362,22
505,98	1353,18
506,08	1348,89
506,18	1380,53
506,28	1385,73
506,39	1386,63
506,49	1386,63
506,59	1364,48
506,70	1348,67
506,80	1391,38
506,90	1470,70
507,00	1345,50
507,11	1386,63
507,21	1423,01
507,31	1417,82
507,41	1390,47
507,52	1373,75
507,62	1376,24
507,72	1433,63
507,82	1428,89
507,93	1380,08
508,03	1416,91
508,13	1398,16
508,23	1382,11
508,34	1394,54
508,44	1345,05
508,54	1352,05
508,64	1403,13
508,74	1333,30
508,85	1360,64
508,95	1374,20
509,05	1358,83
509,15	1386,18
509,26	1376,69
509,36	1372,85
509,46	1380,30
509,56	1365,16
509,66	1378,04
509,77	1354,09
509,87	1378,72
509,97	1386,40
510,07	1383,24
510,17	1327,65
510,28	1518,38
510,38	1437,25
510,48	1364,48
510,58	1407,19
510,68	1381,66
510,78	1391,60
510,89	1362,90
510,99	1333,75
511,09	1417,14
511,19	1432,96
511,29	1358,83
511,39	1440,19
511,50	1447,65
511,60	1357,48
511,70	1404,26
511,80	1403,80
511,90	1421,21
512,00	1373,30
512,11	1350,47
512,21	1371,72
512,31	1335,78
512,41	1461,66
512,51	1393,64
512,61	1503,24
512,71	1371,49
512,82	1357,48
512,92	1339,85
513,02	1395,44
513,12	1387,08
513,22	1369,91
513,32	1431,83
513,42	1395,44
513,53	1431,83
513,63	1413,75
513,73	1414,20
513,83	1355,90
513,93	1390,70
514,03	1411,94
514,13	1443,13
514,23	1376,46
514,33	1375,11
514,44	1392,73
514,54	1352,51
514,64	1479,74
514,74	1388,66
514,84	1367,65
514,94	1417,59
515,04	1428,44
515,14	1390,47
515,24	1414,88
515,34	1417,59
515,44	1346,41
515,55	1326,07
515,65	1405,16
515,75	1386,63
515,85	1374,65
515,95	1431,37
516,05	1462,79
516,15	1404,48
516,25	1356,57
516,35	1386,63
516,45	1374,88
516,55	1373,07
516,65	1375,78
516,75	1490,58
516,85	1398,83
516,95	1408,55
517,05	1461,43
517,16	1358,83
517,26	1523,12
517,36	1385,50
517,46	1336,69
517,56	1409,68
517,66	1375,56
517,76	1366,52
517,86	1355,22
517,96	1416,23
518,06	1369,91
518,16	1378,49
518,26	1393,86
518,36	1345,50
518,46	1366,52
518,56	1437,25
518,66	1438,83
518,76	1384,82
518,86	1435,67
518,96	1341,89
519,06	1362,00
519,16	1411,49
519,26	1395,22
519,36	1427,53
519,46	1415,33
519,56	1445,84
519,66	1487,19
519,76	1365,84
519,86	1378,72
519,96	1404,93
520,06	1380,75
520,16	1483,35
520,26	1416,46
520,36	1376,24
520,46	1388,21
520,56	1366,29
520,66	1385,27
520,76	1365,16
520,86	1374,65
520,96	1457,59
521,06	1418,49
521,16	1365,61
521,26	1385,95
521,35	1413,52
521,45	1347,08
521,55	1373,75
521,65	1423,47
521,75	1354,54
521,85	1337,14
521,95	1399,74
522,05	1354,31
522,15	1364,71
522,25	1747,98
522,35	1428,89
522,45	1378,95
522,55	1448,32
522,65	1406,97
522,75	1354,99
522,85	1360,64
522,94	1386,63
523,04	1430,70
523,14	1387,31
523,24	1352,73
523,34	1355,44
523,44	1401,09
523,54	1373,75
523,64	1383,69
523,74	1466,85
523,84	1400,87
523,94	1418,27
524,03	1340,30
524,13	1390,70
524,23	1394,09
524,33	1352,05
524,43	1347,99
524,53	1379,62
524,63	1383,01
524,73	1352,05
524,83	1359,29
524,92	1378,04
525,02	1352,51
525,12	1413,97
525,22	1378,72
525,32	1362,00
525,42	1423,24
525,52	1372,62
525,61	1414,65
525,71	1338,04
525,81	1382,79
525,91	1367,65
526,01	1376,46
526,11	1403,80
526,21	1422,34
526,30	1409,45
526,40	1358,38
526,50	1393,64
526,60	1412,17
526,70	1407,87
526,80	1416,46
526,89	1355,22
526,99	1347,54
527,09	1381,88
527,19	1397,93
527,29	1416,69
527,39	1389,12
527,48	1382,34
527,58	1404,03
527,68	1342,56
527,78	1460,75
527,88	1479,28
527,97	1368,78
528,07	1358,83
528,17	1443,35
528,27	1435,44
528,37	1385,27
528,46	1368,55
528,56	1449,45
528,66	1416,46
528,76	1347,31
528,86	1429,34
528,95	1362,22
529,05	1375,11
529,15	1412,39
529,25	1429,34
529,35	1426,86
529,44	1410,58
529,54	1461,20
529,64	1400,87
529,74	1373,52
529,83	1354,31
529,93	1353,64
530,03	1390,47
530,13	1376,24
530,22	1449,00
530,32	1433,18
530,42	1418,49
530,52	1321,77
530,61	1423,47
530,71	1329,68
530,81	1416,69
530,91	1383,01
531,00	1391,60
531,10	1386,40
531,20	1426,18
531,30	1458,04
531,39	1483,58
531,49	1547,53
531,59	1859,39
531,69	1778,03
531,78	1767,41
531,88	1751,59
531,98	1771,48
532,07	1648,54
532,17	1630,47
532,27	1594,53
532,37	1480,41
532,46	1449,68
532,56	1396,80
532,66	1346,18
532,75	1383,01
532,85	1403,35
532,95	1386,86
533,04	1383,69
533,14	1413,30
533,24	1394,31
533,34	1356,12
533,43	1418,72
533,53	1350,70
533,63	1400,87
533,72	1376,46
533,82	1374,20
533,92	1375,33
534,01	1523,58
534,11	1558,83
534,21	1411,04
534,30	1362,00
534,40	1393,18
534,50	1342,11
534,59	1350,47
534,69	1336,46
534,79	1379,62
534,88	1433,41
534,98	1439,51
535,08	1328,33
535,17	1410,36
535,27	1356,12
535,36	1349,57
535,46	1394,99
535,56	1333,07
535,65	1401,55
535,75	1411,94
535,85	1404,03
535,94	1343,24
536,04	1397,48
536,14	1408,78
536,23	1428,44
536,33	1365,61
536,42	1406,06
536,52	1374,88
536,62	1351,60
536,71	1399,06
536,81	1385,95
536,90	1358,38
537,00	1361,55
537,10	1358,16
537,19	1381,88
537,29	1418,27
537,38	1432,73
537,48	1400,42
537,58	1367,87
537,67	1327,65
537,77	1380,30
537,86	1365,16
537,96	1441,77
538,06	1383,01
538,15	1361,55
538,25	1489,00
538,34	1500,07
538,44	1517,70
538,53	1415,78
538,63	1448,55
538,73	1413,07
538,82	1395,90
538,92	1373,75
539,01	1487,19
539,11	1347,54
539,20	1484,48
539,30	1406,06
539,39	1373,30
539,49	1423,24
539,59	1428,66
539,68	1536,23
539,78	1530,81
539,87	1447,87
539,97	1447,87
540,06	1437,93
540,16	1419,85
540,25	1432,96
540,35	1474,76
540,44	1450,13
540,54	1503,69
540,63	1446,52
540,73	1411,94
540,82	1442,22
540,92	1398,16
541,01	1478,61
541,11	1524,71
541,20	1437,48
541,30	1464,37
541,39	1469,34
541,49	1417,59
541,58	1521,77
541,68	1501,66
541,77	1442,67
541,87	1399,06
541,96	1405,61
542,06	1480,64
542,15	1460,07
542,25	1618,26
542,34	1511,37
542,44	1439,28
542,53	1434,99
542,63	1464,37
542,72	1419,62
542,82	1442,45
542,91	1471,83
543,01	1418,27
543,10	1503,46
543,20	1466,85
543,29	1478,38
543,38	1423,92
543,48	1452,62
543,57	1456,68
543,67	1439,06
543,76	1450,58
543,86	1423,69
543,95	1463,69
544,05	1563,12
544,14	1585,72
544,23	1473,41
544,33	1431,37
544,42	1492,62
544,52	1457,14
544,61	1477,02
544,71	1539,39
544,80	1585,50
544,89	1552,05
544,99	1499,17
545,08	1531,94
545,18	1457,59
545,27	1624,14
545,36	1581,65
545,46	1520,19
545,55	1478,61
545,65	1497,36
545,74	1455,55
545,84	1444,26
545,93	1470,24
546,02	1446,52
546,12	1516,12
546,21	1476,12
546,30	1476,35
546,40	1478,15
546,49	1431,15
546,59	1453,75
546,68	1434,31
546,77	1499,40
546,87	1470,02
546,96	1514,76
547,05	1491,03
547,15	1451,94
547,24	1443,35
547,34	1439,28
547,43	1460,30
547,52	1543,01
547,62	1519,96
547,71	1505,72
547,80	1489,45
547,90	1452,62
547,99	1560,86
548,08	1478,61
548,18	1412,62
548,27	1431,37
548,36	1441,09
548,46	1443,80
548,55	1462,56
548,64	1472,96
548,74	1457,14
548,83	1469,57
548,92	1557,70
549,02	1425,95
549,11	1615,32
549,20	1497,36
549,30	1456,01
549,39	1472,50
549,48	1487,19
549,58	1433,18
549,67	1487,64
549,76	1461,88
549,85	1406,52
549,95	1456,46
550,04	1498,94
550,13	1428,44
550,23	1485,16
550,32	1440,87
550,41	1439,96
550,50	1476,12
550,60	1553,18
550,69	1458,27
550,78	1420,98
550,88	1525,84
550,97	1482,22
551,06	1471,37
551,15	1463,46
551,25	1551,82
551,34	1436,80
551,43	1425,50
551,52	1463,46
551,62	1517,70
551,71	1537,81
551,80	1502,33
551,89	1467,31
551,99	1452,84
552,08	1463,01
552,17	1420,75
552,26	1495,33
552,36	1412,17
552,45	1414,88
552,54	1414,20
552,63	1479,28
552,73	1573,97
552,82	1552,50
552,91	1456,91
553,00	1611,03
553,10	1474,31
553,19	1564,25
553,28	1440,87
553,37	1458,94
553,46	1435,22
553,56	1515,89
553,65	1439,06
553,74	1417,14
553,83	1484,48
553,92	1445,84
554,02	1470,24
554,11	1464,14
554,20	1419,17
554,29	1554,76
554,38	1441,54
554,48	1445,61
554,57	1420,75
554,66	1449,91
554,75	1498,27
554,84	1490,13
554,94	1477,25
555,03	1446,06
555,12	1412,17
555,21	1428,89
555,30	1572,39
555,39	1432,73
555,49	1449,68
555,58	1484,93
555,67	1493,75
555,76	1504,59
555,85	1421,66
555,94	1425,50
556,03	1429,57
556,13	1448,10
556,22	1447,87
556,31	1498,04
556,40	1425,73
556,49	1501,88
556,58	1443,13
556,67	1469,11
556,77	1456,91
556,86	1557,02
556,95	1480,41
557,04	1536,68
557,13	1553,63
557,22	1531,03
557,31	1486,74
557,40	1460,75
557,50	1550,24
557,59	1424,37
557,68	1450,13
557,77	1509,79
557,86	1486,29
557,95	1457,36
558,04	1462,33
558,13	1473,63
558,22	1486,97
558,31	1447,42
558,41	1426,86
558,50	1515,67
558,59	1526,06
558,68	1523,80
558,77	1497,36
558,86	1429,34
558,95	1415,78
559,04	1477,25
559,13	1528,77
559,22	1460,75
559,31	1463,24
559,40	1427,31
559,49	1461,20
559,59	1513,86
559,68	1415,56
559,77	1543,91
559,86	1587,08
559,95	1461,43
560,04	1458,49
560,13	1486,29
560,22	1620,30
560,31	1502,11
560,40	1468,21
560,49	1431,60
560,58	1452,17
560,67	1430,47
560,76	1421,21
560,85	1418,49
560,94	1538,94
561,03	1447,65
561,12	1647,19
561,21	1599,73
561,30	1451,71
561,39	1452,84
561,48	1459,40
561,57	1422,79
561,66	1498,94
561,75	1566,51
561,84	1457,81
561,93	1467,98
562,02	1466,85
562,11	1418,04
562,20	1460,30
562,29	1478,61
562,38	1426,18
562,47	1540,52
562,56	1484,93
562,65	1449,45
562,74	1444,03
562,83	1628,21
562,92	1506,40
563,01	1551,82
563,10	1434,76
563,19	1472,50
563,28	1669,33
563,37	1560,86
563,46	1422,11
563,55	1475,89
563,64	1647,19
563,73	1435,89
563,82	1499,40
563,91	1570,81
564,00	1477,48
564,09	1438,15
564,18	1493,52
564,27	1427,53
564,35	1514,76
564,44	1479,96
564,53	1526,97
564,62	1519,06
564,71	1512,50
564,80	1501,66
564,89	1514,99
564,98	2949,98
565,07	1586,85
565,16	1459,85
565,25	1754,08
565,34	1479,51
565,43	1454,43
565,51	1462,33
565,60	1570,58
565,69	1446,74
565,78	1565,38
565,87	1435,89
565,96	1394,54
566,05	1521,99
566,14	1557,47
566,23	1500,07
566,32	1550,02
566,40	1515,21
566,49	1597,47
566,58	1439,28
566,67	1476,57
566,76	1449,91
566,85	1457,14
566,94	1481,54
567,03	1512,95
567,11	1465,50
567,20	1479,51
567,29	1552,50
567,38	1531,49
567,47	1463,01
567,56	1472,73
567,65	1460,53
567,73	1443,13
567,82	1443,80
567,91	1472,28
568,00	1456,46
568,09	1579,39
568,18	1452,39
568,27	1450,58
568,35	1476,12
568,44	1518,60
568,53	1495,10
568,62	1437,25
568,71	1413,52
568,80	1461,43
568,88	1512,95
568,97	1564,03
569,06	1437,02
569,15	1429,34
569,24	1493,07
569,32	1503,24
569,41	1461,43
569,50	1416,91
569,59	1423,47
569,68	1433,63
569,76	1475,22
569,85	1503,01
569,94	1538,49
570,03	1423,47
570,12	1505,50
570,20	1475,67
570,29	1478,83
570,38	1500,30
570,47	1491,71
570,56	1418,04
570,64	1447,87
570,73	1459,62
570,82	1560,18
570,91	1507,30
570,99	1447,42
571,08	1433,86
571,17	1424,14
571,26	1552,05
571,34	1430,92
571,43	1490,58
571,52	1506,40
571,61	1422,11
571,69	1437,02
571,78	1526,51
571,87	1538,26
571,96	1542,56
572,04	1526,06
572,13	1542,11
572,22	1425,95
572,31	1435,67
572,39	1432,73
572,48	1470,47
572,57	1453,07
572,66	1447,87
572,74	1412,62
572,83	1477,93
572,92	1452,62
573,00	1425,73
573,09	1512,05
573,18	1514,08
573,27	1513,41
573,35	1437,48
573,44	1405,84
573,53	1455,10
573,61	1471,15
573,70	1488,10
573,79	1413,30
573,87	1583,24
573,96	1438,38
574,05	1468,44
574,14	1459,85
574,22	1442,67
574,31	1500,75
574,40	1409,23
574,48	1470,47
574,57	1498,04
574,66	1454,88
574,74	1479,28
574,83	1516,34
574,92	1539,85
575,00	1472,28
575,09	1528,10
575,18	1468,21
575,26	1570,58
575,35	1455,33
575,43	1439,28
575,52	1503,24
575,61	1493,75
575,69	1509,34
575,78	1439,06
575,87	1578,94
575,95	1517,93
576,04	1463,46
576,13	1497,81
576,21	1457,81
576,30	1502,79
576,38	1507,76
576,47	1463,92
576,56	1458,72
576,64	1453,52
576,73	1517,02
576,82	1504,59
576,90	1481,09
576,99	1488,55
577,07	1463,69
577,16	1468,44
577,25	1499,62
577,33	1612,16
577,42	1492,16
577,50	1460,53
577,59	1498,27
577,68	1545,50
577,76	1500,98
577,85	1473,86
577,93	1465,05
578,02	1459,62
578,10	1470,92
578,19	1479,06
578,28	1459,85
578,36	1477,48
578,45	1482,45
578,53	1437,25
578,62	1449,23
578,70	1452,17
578,79	1483,58
578,88	1481,54
578,96	1453,52
579,05	1459,85
579,13	1590,69
579,22	1506,63
579,30	1473,41
579,39	1500,53
579,47	1575,78
579,56	1456,91
579,64	1724,70
579,73	1481,77
579,82	1500,98
579,90	1436,57
579,99	1458,72
580,07	1513,86
580,16	1481,99
580,24	1506,63
580,33	1419,85
580,41	1473,18
580,50	1446,97
580,58	1439,74
580,67	1450,81
580,75	1485,61
580,84	1484,03
580,92	1437,02
581,01	1561,99
581,09	1457,59
581,18	1477,25
581,26	1446,97
581,35	1426,40
581,43	1519,28
581,52	1475,22
581,60	1479,51
581,69	1452,62
581,77	1487,19
581,86	1470,92
581,94	1445,84
582,02	1467,08
582,11	1432,73
582,19	1547,53
582,28	1583,46
582,36	1584,37
582,45	1585,50
582,53	1472,50
582,62	1453,97
582,70	1439,06
582,79	1521,77
582,87	1453,07
582,96	1484,93
583,04	1547,53
583,12	1485,38
583,21	1475,44
583,29	1498,72
583,38	1505,72
583,46	1452,84
583,55	1478,61
583,63	1437,02
583,71	1470,02
583,80	1488,55
583,88	1443,13
583,97	1608,09
584,05	1506,85
584,13	1525,61
584,22	1518,15
584,30	1449,91
584,39	1508,89
584,47	1533,29
584,55	1436,57
584,64	1481,09
584,72	1492,39
584,81	1445,84
584,89	1434,54
584,97	1431,60
585,06	1432,50
585,14	1470,02
585,23	1467,08
585,31	1431,15
585,39	1454,65
585,48	1496,68
585,56	1440,19
585,64	1496,91
585,73	1473,63
585,81	1502,11
585,90	1493,29
585,98	1443,58
586,06	1461,88
586,15	1532,84
586,23	1425,27
586,31	1449,23
586,40	1434,99
586,48	1558,38
586,56	1446,29
586,65	1433,41
586,73	1462,79
586,81	1499,17
586,90	1463,92
586,98	1430,02
587,06	1424,37
587,15	1459,17
587,23	1451,26
587,31	1460,75
587,40	1439,96
587,48	1417,36
587,56	1527,42
587,65	1630,92
587,73	1513,86
587,81	1489,23
587,90	1572,16
587,98	1472,96
588,06	1450,13
588,14	1433,18
588,23	1458,04
588,31	1548,66
588,39	1480,19
588,48	1459,17
588,56	1435,44
588,64	1478,83
588,72	1477,25
588,81	1458,49
588,89	1479,74
588,97	1504,59
589,06	1543,69
589,14	1513,86
589,22	1465,95
589,30	1467,98
589,39	1433,63
589,47	1512,28
589,55	1573,74
589,63	1477,25
589,72	1450,58
589,80	1455,78
589,88	1509,56
589,96	1523,12
590,05	1475,89
590,13	1481,09
590,21	1531,94
590,29	1525,61
590,38	1492,62
590,46	1547,30
590,54	1434,99
590,62	1442,45
590,71	1525,38
590,79	1555,44
590,87	1431,60
590,95	1438,83
591,03	1435,22
591,12	1480,41
591,20	1451,26
591,28	1564,48
591,36	1481,99
591,44	1441,09
591,53	1470,02
591,61	1463,92
591,69	1447,65
591,77	1481,77
591,85	1481,77
591,94	1441,09
592,02	1431,60
592,10	1518,38
592,18	1504,14
592,26	1469,34
592,34	1439,96
592,43	1408,78
592,51	1424,60
592,59	1444,93
592,67	1437,02
592,75	1424,60
592,84	1455,10
592,92	1523,35
593,00	1455,78
593,08	1456,46
593,16	1434,99
593,24	1464,14
593,32	1528,77
593,41	1472,28
593,49	1417,82
593,57	1453,30
593,65	1448,32
593,73	1465,27
593,81	1488,32
593,89	1505,27
593,98	1467,08
594,06	1430,02
594,14	1446,97
594,22	1471,83
594,30	1457,81
594,38	1464,37
594,46	1530,36
594,54	1505,05
594,62	1506,40
594,71	1456,23
594,79	1447,42
594,87	1449,00
594,95	1459,85
595,03	1521,54
595,11	1489,23
595,19	1553,63
595,27	1471,15
595,35	1458,04
595,43	1446,52
595,52	1443,35
595,60	1450,81
595,68	1575,10
595,76	1416,23
595,84	1495,78
595,92	1458,72
596,00	1539,85
596,08	1509,34
596,16	1458,72
596,24	1454,43
596,32	1438,15
596,40	1475,67
596,48	1495,33
596,56	1498,27
596,64	1424,82
596,73	1483,35
596,81	1440,19
596,89	1471,83
596,97	1428,44
597,05	1643,80
597,13	1442,00
597,21	1435,89
597,29	1437,93
597,37	1528,55
597,45	1498,27
597,53	1436,57
597,61	1474,31
597,69	1498,72
597,77	1448,10
597,85	1434,54
597,93	1473,41
598,01	1447,65
598,09	1535,10
598,17	1471,37
598,25	1461,20
598,33	1426,86
598,41	1453,75
598,49	1431,60
598,57	1427,53
598,65	1441,09
598,73	1461,20
598,81	1479,74
598,89	1461,20
598,97	1414,88
599,05	1511,15
599,13	1459,62
599,21	1426,86
599,29	1468,66
599,37	1458,72
599,45	1444,93
599,53	1526,29
599,61	1445,61
599,69	1486,06
599,77	1456,91
599,85	1447,65
599,93	1446,06
600,00	1427,53
600,08	1498,27
600,16	1415,56
600,24	1432,96
600,32	1558,38
600,40	1572,16
600,48	1519,96
600,56	1501,66
600,64	1519,51
600,72	1455,10
600,80	1466,40
600,88	1455,78
600,96	1515,67
601,04	1407,87
601,12	1427,76
601,19	1397,93
601,27	1417,59
601,35	1449,68
601,43	1426,18
601,51	1477,25
601,59	1423,01
601,67	1442,67
601,75	1456,91
601,83	1461,66
601,91	1415,10
601,98	1415,78
602,06	1491,49
602,14	1473,86
602,22	1475,44
602,30	1502,79
602,38	1459,17
602,46	1414,88
602,54	1511,82
602,61	1490,58
602,69	1472,28
602,77	1406,97
602,85	1420,75
602,93	1412,39
603,01	1486,51
603,09	1517,70
603,17	1449,23
603,24	1472,05
603,32	1436,35
603,40	1476,57
603,48	1487,64
603,56	1422,79
603,64	1429,79
603,71	1424,82
603,79	1455,55
603,87	1481,77
603,95	1605,61
604,03	1445,16
604,11	1509,56
604,18	1477,02
604,26	1457,81
604,34	1405,39
604,42	1475,44
604,50	1418,72
604,57	1442,00
604,65	1460,75
604,73	1459,17
604,81	1455,33
604,89	1448,10
604,96	1459,85
605,04	1470,02
605,12	1438,38
605,20	1486,97
605,28	1543,46
605,35	1462,79
605,43	1479,74
605,51	1426,40
605,59	1477,25
605,67	1570,35
605,74	1453,30
605,82	1447,65
605,90	1433,63
605,98	1484,71
606,05	1459,40
606,13	1490,36
606,21	1460,98
606,29	1453,07
606,36	1458,27
606,44	1419,85
606,52	1440,64
606,60	1445,61
606,67	1407,65
606,75	1445,61
606,83	1395,67
606,91	1485,16
606,98	1435,67
607,06	1475,67
607,14	1431,83
607,22	1424,60
607,29	1452,39
607,37	1440,19
607,45	1484,03
607,52	1497,14
607,60	1493,75
607,68	1432,05
607,76	1470,92
607,83	1399,51
607,91	1485,38
607,99	1472,05
608,06	1475,44
608,14	1432,50
608,22	1447,87
608,30	1516,34
608,37	1416,91
608,45	1408,78
608,53	1476,80
608,60	1457,14
608,68	1433,63
608,76	1437,70
608,83	1493,29
608,91	1403,13
608,99	1468,44
609,06	1477,93
609,14	1485,16
609,22	1446,06
609,29	1417,82
609,37	1420,08
609,45	1488,77
609,52	1403,13
609,60	1417,14
609,68	1429,11
609,75	1449,45
609,83	1398,83
609,91	1555,67
609,98	1424,14
610,06	1424,60
610,13	1459,40
610,21	1444,03
610,29	1439,96
610,36	1397,93
610,44	1401,55
610,52	1446,06
610,59	1409,00
610,67	1422,79
610,74	1435,67
610,82	1416,91
610,90	1455,33
610,97	1451,26
611,05	1452,17
611,13	1446,74
611,20	1540,75
611,28	1424,60
611,35	1452,62
611,43	1404,71
611,51	1449,45
611,58	1438,61
611,66	1543,46
611,73	1414,88
611,81	1510,92
611,88	1483,80
611,96	1485,38
612,04	1418,04
612,11	1408,32
612,19	1523,35
612,26	1439,28
612,34	1437,02
612,41	1432,28
612,49	1404,71
612,57	1391,15
612,64	1400,42
612,72	1493,52
612,79	1556,80
612,87	1396,12
612,94	1403,58
613,02	1436,80
613,09	1447,87
613,17	1471,60
613,24	1420,08
613,32	1491,26
613,40	1427,99
613,47	1420,98
613,55	1399,06
613,62	1481,99
613,70	1481,99
613,77	1423,01
613,85	1473,18
613,92	1430,47
614,00	1400,87
614,07	1418,95
614,15	1374,43
614,22	1404,03
614,30	1453,07
614,37	1403,58
614,45	1435,44
614,52	1405,16
614,60	1430,47
614,67	1486,06
614,75	1370,81
614,82	1456,46
614,90	1415,56
614,97	1413,75
615,05	1524,93
615,12	1450,36
615,20	1445,61
615,27	1437,02
615,34	1437,93
615,42	1401,09
615,49	1439,51
615,57	1394,09
615,64	1405,61
615,72	1408,32
615,79	1413,30
615,87	1453,07
615,94	1506,85
616,02	1436,35
616,09	1504,59
616,16	1450,81
616,24	1425,73
616,31	1392,96
616,39	1498,72
616,46	1477,48
616,54	1458,72
616,61	1529,00
616,68	1400,42
616,76	1399,51
616,83	1450,13
616,91	1417,14
616,98	1387,31
617,06	1486,51
617,13	1427,08
617,20	1414,65
617,28	1432,73
617,35	1394,31
617,43	1478,61
617,50	1420,98
617,57	1423,47
>>>>>End Processed Spectral Data<<<<<
