SpectraSuite Datei
++++++++++++++++++++++++++++++++++++
Datum: Mon Jan 05 02:40:32 CET 2004
Benutzer: Student
Dark-Spektrum vorhanden: Ja
Referenz-Spektrum vorhanden: Nein
Zahl der probierten Teilspektren: 1
Spektrometer: USB2+H04734
Integrationszeit (usec): 50000 (USB2+H04734)
Spektren Durchschnitt berechnet: 100 (USB2+H04734)
Boxcar Glättung: 0 (USB2+H04734)
Dunkelstromkorrektur: Nein (USB2+H04734)
Puls/Lampe aktiviert: Nein (USB2+H04734)
Correct for Detector Non-linearity: Nein (USB2+H04734)
Streulichtkorrektur: Nein (USB2+H04734)
Anzahl Pixel in verarbeitetem Spektrum: 2048
>>>>>Begin Processed Spectral Data<<<<<
418,45	899,57
418,57	899,57
418,69	899,57
418,80	817,67
418,92	796,77
419,04	801,02
419,16	782,71
419,28	773,40
419,40	762,71
419,52	763,14
419,64	763,03
419,75	769,18
419,87	776,91
419,99	772,86
420,11	775,57
420,23	789,02
420,35	802,35
420,47	811,78
420,58	809,31
420,70	820,90
420,82	833,85
420,94	842,28
421,06	854,92
421,18	864,59
421,29	1230,63
421,41	2172,71
421,53	2216,64
421,65	2249,43
421,77	2253,77
421,89	2271,58
422,00	2282,45
422,12	2286,00
422,24	2285,32
422,36	2308,93
422,48	2305,16
422,59	2305,30
422,71	2338,94
422,83	2318,02
422,95	2327,58
423,07	2316,14
423,18	2338,97
423,30	2348,89
423,42	2336,55
423,54	2340,66
423,66	2357,52
423,77	2350,72
423,89	2348,30
424,01	2353,79
424,13	2351,31
424,25	2358,18
424,36	2367,71
424,48	2385,18
424,60	2359,78
424,72	2366,24
424,84	2369,43
424,95	2371,21
425,07	2366,97
425,19	2396,21
425,31	2405,59
425,42	2408,55
425,54	2399,73
425,66	2398,42
425,78	2395,55
425,89	2406,85
426,01	2402,35
426,13	2411,44
426,25	2428,73
426,36	2425,59
426,48	2431,87
426,60	2402,29
426,72	2424,55
426,83	2426,40
426,95	2431,96
427,07	2447,10
427,19	2466,62
427,30	2466,65
427,42	2445,02
427,54	2469,22
427,66	2460,48
427,77	2467,57
427,89	2476,68
428,01	2495,93
428,12	2496,63
428,24	2494,89
428,36	2521,72
428,48	2507,17
428,59	2522,85
428,71	2525,92
428,83	2516,91
428,94	2530,17
429,06	2525,13
429,18	2547,39
429,30	2528,59
429,41	2545,24
429,53	2557,06
429,65	2560,59
429,76	2549,27
429,88	2535,28
430,00	2559,05
430,11	2557,49
430,23	2563,07
430,35	2595,19
430,47	2597,06
430,58	2574,46
430,70	2622,73
430,82	2587,75
430,93	2623,59
431,05	2610,76
431,17	2639,46
431,28	2618,51
431,40	2615,71
431,52	2636,70
431,63	2615,84
431,75	2645,40
431,87	2658,96
431,98	2648,11
432,10	2643,95
432,22	2649,24
432,33	2662,69
432,45	2660,92
432,56	2648,74
432,68	2669,62
432,80	2661,94
432,91	2665,26
433,03	2688,95
433,15	2691,48
433,26	2690,03
433,38	2681,71
433,50	2702,82
433,61	2697,17
433,73	2688,54
433,84	2696,90
433,96	2698,66
434,08	2700,54
434,19	2704,63
434,31	2720,09
434,43	2741,04
434,54	2741,87
434,66	2750,44
434,77	2748,15
434,89	2763,00
435,01	2800,40
435,12	2781,06
435,24	2832,31
435,35	2814,21
435,47	2866,37
435,59	2857,28
435,70	2815,20
435,82	2816,26
435,93	2800,17
436,05	2788,79
436,17	2759,29
436,28	2771,66
436,40	2752,31
436,51	2774,37
436,63	2781,83
436,74	2764,02
436,86	2771,88
436,98	2811,27
437,09	2782,32
437,21	2794,01
437,32	2789,71
437,44	2819,20
437,55	2776,76
437,67	2842,73
437,79	2810,03
437,90	2801,01
438,02	2796,36
438,13	2878,48
438,25	2795,68
438,36	2840,35
438,48	2818,86
438,59	2843,27
438,71	2820,51
438,83	2840,58
438,94	2843,95
439,06	2839,45
439,17	2842,70
439,29	2839,34
439,40	2853,60
439,52	2852,94
439,63	2874,05
439,75	2872,33
439,86	2875,40
439,98	2887,11
440,09	2892,94
440,21	2912,62
440,32	2915,22
440,44	2891,61
440,55	2886,95
440,67	2893,03
440,78	2914,34
440,90	2911,63
441,01	2898,27
441,13	2917,17
441,24	2938,36
441,36	2937,82
441,47	2952,46
441,59	2935,43
441,70	2962,84
441,82	2963,99
441,93	2959,90
442,05	2946,66
442,16	2962,70
442,28	2967,04
442,39	2981,89
442,51	2964,87
442,62	2975,88
442,74	2994,34
442,85	3017,23
442,97	3003,63
443,08	3006,36
443,20	3020,19
443,31	3021,98
443,43	3043,65
443,54	3057,37
443,66	3032,78
443,77	3049,32
443,88	3052,58
444,00	3040,91
444,11	3050,43
444,23	3084,53
444,34	3071,40
444,46	3079,58
444,57	3066,43
444,69	3087,49
444,80	3080,94
444,91	3105,70
445,03	3100,26
445,14	3120,35
445,26	3118,34
445,37	3092,10
445,49	3100,05
445,60	3142,54
445,71	3132,64
445,83	3146,43
445,94	3129,32
446,06	3156,78
446,17	3156,26
446,29	3162,67
446,40	3156,62
446,51	3169,32
446,63	3173,39
446,74	3174,76
446,86	3182,13
446,97	3195,83
447,08	3204,03
447,20	3210,38
447,31	3222,24
447,43	3228,55
447,54	3244,82
447,65	3224,80
447,77	3211,94
447,88	3234,67
448,00	3234,17
448,11	3229,25
448,22	3236,30
448,34	3262,83
448,45	3257,95
448,56	3278,49
448,68	3293,97
448,79	3311,03
448,90	3279,35
449,02	3321,68
449,13	3301,43
449,25	3318,53
449,36	3321,81
449,47	3325,29
449,59	3341,70
449,70	3355,10
449,81	3326,20
449,93	3351,03
450,04	3376,59
450,15	3382,42
450,27	3417,76
450,38	3387,55
450,49	3405,09
450,61	3418,67
450,72	3407,93
450,83	3408,09
450,95	3397,85
451,06	3422,42
451,17	3463,43
451,29	3447,25
451,40	3444,75
451,51	3433,27
451,63	3489,24
451,74	3435,14
451,85	3433,70
451,97	3495,61
452,08	3520,63
452,19	3486,53
452,31	3481,33
452,42	3483,25
452,53	3483,39
452,65	3494,15
452,76	3492,61
452,87	3488,29
452,98	3498,67
453,10	3514,17
453,21	3517,87
453,32	3516,50
453,44	3552,31
453,55	3552,49
453,66	3579,52
453,77	3561,01
453,89	3584,65
454,00	3588,06
454,11	3583,95
454,23	3611,48
454,34	3640,54
454,45	3586,01
454,56	3617,60
454,68	3623,38
454,79	3623,88
454,90	3634,91
455,01	3603,68
455,13	3628,40
455,24	3648,08
455,35	3645,78
455,46	3649,01
455,58	3670,93
455,69	3701,17
455,80	3673,06
455,91	3692,02
456,03	3697,10
456,14	3717,76
456,25	3692,24
456,36	3707,61
456,48	3742,59
456,59	3722,91
456,70	3714,03
456,81	3744,94
456,92	3764,80
457,04	3754,32
457,15	3736,06
457,26	3720,22
457,37	3751,38
457,49	3768,49
457,60	3741,57
457,71	3766,57
457,82	3809,69
457,93	3793,17
458,05	3822,95
458,16	3781,19
458,27	3793,64
458,38	3797,84
458,49	3881,01
458,61	3822,27
458,72	3828,62
458,83	3866,18
458,94	3839,00
459,05	3861,39
459,17	3869,25
459,28	3851,04
459,39	3852,37
459,50	3864,87
459,61	3913,71
459,72	3900,44
459,84	3899,90
459,95	3887,69
460,06	3888,06
460,17	3896,60
460,28	3905,91
460,39	3945,68
460,51	3930,65
460,62	3969,84
460,73	3971,87
460,84	3940,48
460,95	3946,90
461,06	3957,16
461,18	3987,44
461,29	3997,18
461,40	3976,28
461,51	3974,43
461,62	3961,75
461,73	4006,88
461,84	4015,49
461,96	4027,17
462,07	4039,26
462,18	4014,36
462,29	4085,43
462,40	4050,24
462,51	4049,18
462,62	4044,96
462,73	4030,63
462,85	4049,45
462,96	4054,09
463,07	4069,32
463,18	4096,57
463,29	4111,17
463,40	4096,14
463,51	4093,56
463,62	4121,13
463,73	4129,74
463,85	4097,79
463,96	4128,57
464,07	4152,50
464,18	4156,23
464,29	4124,57
464,40	4163,26
464,51	4143,10
464,62	4157,74
464,73	4167,08
464,84	4129,47
464,95	4135,08
465,06	4209,18
465,18	4191,89
465,29	4201,13
465,40	4141,22
465,51	4197,18
465,62	4206,04
465,73	4200,21
465,84	4226,85
465,95	4225,92
466,06	4230,40
466,17	4246,74
466,28	4247,55
466,39	4244,86
466,50	4232,25
466,61	4260,75
466,72	4275,16
466,83	4260,20
466,95	4293,24
467,06	4281,45
467,17	4253,94
467,28	4334,53
467,39	4324,84
467,50	4342,03
467,61	4321,51
467,72	4272,25
467,83	4338,24
467,94	4320,59
468,05	4353,76
468,16	4346,85
468,27	4391,68
468,38	4392,25
468,49	4385,85
468,60	4388,07
468,71	4398,71
468,82	4409,83
468,93	4380,54
469,04	4440,36
469,15	4415,84
469,26	4425,78
469,37	4434,46
469,48	4464,61
469,59	4473,37
469,70	4458,62
469,81	4489,55
469,92	4476,99
470,03	4469,60
470,14	4520,13
470,25	4521,49
470,36	4495,63
470,47	4522,95
470,58	4502,91
470,69	4566,82
470,80	4560,92
470,91	4565,21
471,02	4577,55
471,13	4556,33
471,24	4588,20
471,35	4555,09
471,46	4626,75
471,56	4621,46
471,67	4641,82
471,78	4618,64
471,89	4664,74
472,00	4644,96
472,11	4640,78
472,22	4676,31
472,33	4699,27
472,44	4671,94
472,55	4694,63
472,66	4722,32
472,77	4746,63
472,88	4733,73
472,99	4699,29
473,10	4730,34
473,21	4725,14
473,32	4778,95
473,42	4716,28
473,53	4759,85
473,64	4778,59
473,75	4799,63
473,86	4790,97
473,97	4821,36
474,08	4806,81
474,19	4820,17
474,30	4808,60
474,41	4811,78
474,52	4831,65
474,62	4816,85
474,73	4855,28
474,84	4840,57
474,95	4878,83
475,06	4809,86
475,17	4851,35
475,28	4827,99
475,39	4848,57
475,50	4898,67
475,60	4888,17
475,71	4947,19
475,82	4920,64
475,93	4936,75
476,04	4932,86
476,15	4952,46
476,26	4981,72
476,37	4936,01
476,47	4968,14
476,58	4950,06
476,69	4988,19
476,80	5007,48
476,91	5033,47
477,02	5033,74
477,13	5076,68
477,23	5063,37
477,34	5063,78
477,45	5059,35
477,56	5066,60
477,67	5078,71
477,78	5068,84
477,89	5119,48
477,99	5078,65
478,10	5139,57
478,21	5199,09
478,32	5203,55
478,43	5175,12
478,54	5187,91
478,64	5151,39
478,75	5285,04
478,86	5242,51
478,97	5240,09
479,08	5246,53
479,18	5230,98
479,29	5238,48
479,40	5249,04
479,51	5254,21
479,62	5226,42
479,72	5236,31
479,83	5237,26
479,94	5270,05
480,05	5304,34
480,16	5304,88
480,26	5349,01
480,37	5357,94
480,48	5346,44
480,59	5397,12
480,70	5389,15
480,80	5333,53
480,91	5407,90
481,02	5386,93
481,13	5395,52
481,24	5435,68
481,34	5413,71
481,45	5453,64
481,56	5423,04
481,67	5441,24
481,77	5461,39
481,88	5449,80
481,99	5445,28
482,10	5549,46
482,20	5473,46
482,31	5491,81
482,42	5472,38
482,53	5502,75
482,63	5550,07
482,74	5551,36
482,85	5577,55
482,96	5538,36
483,06	5564,96
483,17	5591,49
483,28	5579,18
483,39	5586,02
483,49	5598,59
483,60	5599,17
483,71	5610,11
483,81	5611,20
483,92	5636,30
484,03	5690,31
484,14	5688,53
484,24	5669,93
484,35	5689,61
484,46	5706,74
484,57	5678,13
484,67	5699,67
484,78	5700,32
484,89	5732,62
484,99	5733,18
485,10	5760,98
485,21	5761,07
485,31	5761,11
485,42	5747,10
485,53	5737,88
485,63	5762,58
485,74	5784,01
485,85	5793,02
485,96	5770,61
486,06	5799,64
486,17	5816,89
486,28	5826,29
486,38	5835,85
486,49	5820,52
486,60	5830,60
486,70	5841,20
486,81	5845,20
486,92	5882,33
487,02	5852,73
487,13	5803,19
487,24	5882,99
487,34	5884,91
487,45	5881,00
487,56	5849,11
487,66	5904,16
487,77	5929,47
487,87	5896,70
487,98	5892,18
488,09	5909,06
488,19	5949,11
488,30	5937,97
488,41	5895,17
488,51	5932,02
488,62	5928,02
488,73	5944,32
488,83	5964,50
488,94	5964,36
489,04	5984,66
489,15	5973,24
489,26	6008,97
489,36	6047,57
489,47	5995,62
489,58	5998,28
489,68	6013,60
489,79	5982,76
489,89	6019,01
490,00	6021,54
490,11	5987,73
490,21	6024,50
490,32	6018,31
490,42	6030,71
490,53	6029,54
490,64	5995,01
490,74	6006,85
490,85	6035,05
490,95	6033,17
491,06	6041,17
491,16	6062,89
491,27	6044,84
491,38	6040,38
491,48	6032,23
491,59	6078,19
491,69	6060,11
491,80	6081,35
491,90	6047,93
492,01	6043,59
492,12	6058,94
492,22	6058,87
492,33	6038,73
492,43	6050,73
492,54	6060,13
492,64	6048,59
492,75	6033,99
492,86	6046,53
492,96	6054,64
493,07	6049,65
493,17	6076,83
493,28	6083,98
493,38	6098,12
493,49	6057,78
493,59	6100,81
493,70	6076,70
493,80	6091,18
493,91	6045,67
494,01	6064,27
494,12	6070,44
494,22	6079,98
494,33	6073,04
494,43	6087,68
494,54	6103,39
494,64	6081,78
494,75	6066,42
494,86	6092,02
494,96	6086,91
495,07	6060,43
495,17	6041,11
495,28	6055,32
495,38	6020,14
495,49	6032,84
495,59	6049,85
495,69	6046,15
495,80	6044,79
495,90	6033,20
496,01	6065,65
496,11	6068,18
496,22	6060,38
496,32	6068,59
496,43	6046,55
496,53	6054,51
496,64	6069,54
496,74	6054,26
496,85	6035,82
496,95	6028,90
497,06	6050,33
497,16	6026,12
497,27	6068,61
497,37	6053,33
497,48	6034,67
497,58	6030,26
497,68	6012,52
497,79	6009,13
497,89	6029,81
498,00	6040,97
498,10	6036,07
498,21	6054,10
498,31	6012,16
498,42	6019,73
498,52	6025,51
498,62	5992,14
498,73	6052,86
498,83	6059,84
498,94	6015,44
499,04	6061,11
499,15	6017,49
499,25	6012,27
499,35	6086,28
499,46	6051,50
499,56	6084,74
499,67	6048,25
499,77	6043,91
499,87	6099,61
499,98	6065,72
500,08	6062,10
500,19	6094,19
500,29	6094,14
500,39	6107,16
500,50	6175,77
500,60	6144,02
500,71	6155,45
500,81	6179,36
500,91	6181,67
501,02	6226,19
501,12	6228,83
501,22	6241,55
501,33	6273,55
501,43	6273,53
501,54	6313,66
501,64	6313,10
501,74	6328,94
501,85	6373,64
501,95	6334,75
502,05	6469,48
502,16	6437,59
502,26	6501,12
502,37	6479,22
502,47	6519,06
502,57	6549,61
502,68	6561,93
502,78	6611,51
502,88	6629,07
502,99	6658,20
503,09	6696,03
503,19	6677,20
503,30	6744,30
503,40	6760,09
503,50	6731,87
503,61	6799,96
503,71	6800,66
503,81	6830,89
503,92	6852,23
504,02	6893,40
504,12	6907,37
504,23	6917,72
504,33	6977,96
504,43	7053,13
504,54	7083,36
504,64	7041,01
504,74	7147,97
504,84	7156,92
504,95	7233,41
505,05	7263,45
505,15	7270,39
505,26	7287,13
505,36	7298,68
505,46	7300,33
505,56	7394,88
505,67	7400,53
505,77	7424,19
505,87	7437,21
505,98	7513,97
506,08	7565,77
506,18	7568,84
506,28	7566,17
506,39	7614,26
506,49	7622,53
506,59	7659,91
506,70	7618,99
506,80	7763,07
506,90	7786,39
507,00	7805,42
507,11	7801,72
507,21	7881,35
507,31	7952,11
507,41	7949,24
507,52	8011,59
507,62	8043,54
507,72	8077,48
507,82	8087,56
507,93	8187,40
508,03	8221,21
508,13	8224,62
508,23	8248,48
508,34	8284,87
508,44	8378,65
508,54	8416,50
508,64	8521,58
508,74	8519,01
508,85	8592,11
508,95	8686,98
509,05	8662,10
509,15	8716,34
509,26	8719,39
509,36	8751,88
509,46	8790,35
509,56	8824,63
509,66	8907,02
509,77	8956,31
509,87	9001,44
509,97	8967,63
510,07	8953,44
510,17	9006,00
510,28	8997,98
510,38	9022,16
510,48	9117,79
510,58	9165,54
510,68	9244,48
510,78	9289,09
510,89	9266,63
510,99	9243,73
511,09	9291,67
511,19	9290,85
511,29	9290,76
511,39	9319,05
511,50	9366,13
511,60	9447,01
511,70	9510,44
511,80	9553,51
511,90	9600,65
512,00	9556,70
512,11	9607,79
512,21	9626,93
512,31	9663,47
512,41	9714,57
512,51	9854,95
512,61	9950,41
512,71	10039,28
512,82	10046,52
512,92	9914,77
513,02	9947,47
513,12	9880,67
513,22	9967,81
513,32	10059,22
513,42	10151,37
513,53	10237,20
513,63	10336,86
513,73	10443,18
513,83	10532,90
513,93	10547,47
514,03	10546,37
514,13	10549,78
514,23	10529,01
514,33	10634,75
514,44	10649,57
514,54	10758,09
514,64	10830,49
514,74	10965,07
514,84	11054,01
514,94	11163,86
515,04	11172,99
515,14	11176,81
515,24	11072,21
515,34	10995,48
515,44	10989,72
515,55	10862,20
515,65	10946,09
515,75	10936,44
515,85	10993,79
515,95	11094,60
516,05	11194,98
516,15	11285,62
516,25	11386,53
516,35	11367,43
516,45	11293,67
516,55	11188,75
516,65	11168,54
516,75	11121,99
516,85	11159,28
516,95	11151,62
517,05	11253,92
517,16	11453,19
517,26	11588,71
517,36	11802,29
517,46	11918,62
517,56	11922,01
517,66	11856,21
517,76	11763,85
517,86	11616,82
517,96	11492,35
518,06	11372,20
518,16	11422,66
518,26	11505,66
518,36	11593,93
518,46	11712,57
518,56	11864,59
518,66	12079,75
518,76	12203,02
518,86	12279,41
518,96	12197,37
519,06	12153,13
519,16	12025,31
519,26	11984,77
519,36	11928,82
519,46	12016,25
519,56	12041,54
519,66	12097,90
519,76	12223,14
519,86	12408,10
519,96	12595,56
520,06	12732,12
520,16	12809,06
520,26	12893,74
520,36	12913,02
520,46	12778,24
520,56	12642,00
520,66	12583,87
520,76	12500,33
520,86	12394,05
520,96	12400,76
521,06	12417,07
521,16	12500,96
521,26	12710,83
521,35	12880,52
521,45	13009,80
521,55	13123,20
521,65	13327,51
521,75	13289,21
521,85	13253,48
521,95	13156,15
522,05	13059,84
522,15	12918,10
522,25	12799,28
522,35	12739,60
522,45	12320,76
522,55	12766,81
522,65	12905,69
522,75	13044,11
522,85	13283,54
522,94	13354,45
523,04	13567,39
523,14	13718,60
523,24	13779,34
523,34	13806,85
523,44	13737,97
523,54	13590,08
523,64	13462,95
523,74	13309,68
523,84	13122,53
523,94	13123,43
524,03	13101,71
524,13	13203,13
524,23	13444,93
524,33	13663,21
524,43	13890,23
524,53	14077,10
524,63	14098,25
524,73	14207,97
524,83	14259,90
524,92	14281,61
525,02	14218,68
525,12	14137,84
525,22	13957,42
525,32	13812,90
525,42	13698,28
525,52	13554,58
525,61	13532,84
525,71	13637,20
525,81	13747,03
525,91	14035,79
526,01	14119,40
526,11	14293,16
526,21	14499,62
526,30	14537,56
526,40	14729,17
526,50	14813,96
526,60	14823,97
526,70	14677,49
526,80	14720,99
526,89	14414,36
526,99	14153,48
527,09	14055,77
527,19	13907,61
527,29	13882,82
527,39	13974,10
527,48	14046,84
527,58	14287,17
527,68	14580,43
527,78	14736,83
527,88	14954,30
527,97	15095,74
528,07	15204,03
528,17	15262,81
528,27	15310,69
528,37	15202,40
528,46	15187,31
528,56	15069,50
528,66	14807,70
528,76	14718,19
528,86	14545,83
528,95	14420,82
529,05	14453,79
529,15	14534,62
529,25	14667,09
529,35	14827,20
529,44	15109,52
529,54	15262,20
529,64	15379,64
529,74	15538,53
529,83	15635,66
529,93	15700,74
530,03	15861,23
530,13	15902,47
530,22	15854,54
530,32	15879,65
530,42	15670,80
530,52	15576,13
530,61	15579,52
530,71	15365,27
530,81	15305,00
530,91	15239,19
531,00	15323,39
531,10	15360,27
531,20	15481,60
531,30	15482,76
531,39	15710,19
531,49	15806,34
531,59	15937,68
531,69	16086,45
531,78	16060,14
531,88	16280,57
531,98	16270,80
532,07	16369,67
532,17	16318,73
532,27	16027,33
532,37	16030,04
532,46	15718,34
532,56	15597,13
532,66	15410,62
532,75	15349,54
532,85	15326,60
532,95	15345,59
533,04	15503,86
533,14	15763,65
533,24	15959,13
533,34	16168,46
533,43	16417,65
533,53	16416,13
533,63	16606,09
533,72	16731,31
533,82	16733,03
533,92	16828,15
534,01	16650,25
534,11	16617,82
534,21	16430,60
534,30	16153,43
534,40	15875,27
534,50	15587,03
534,59	15527,68
534,69	15578,82
534,79	15625,10
534,88	15694,16
534,98	15906,79
535,08	16022,43
535,17	16309,15
535,27	16676,49
535,36	16781,89
535,46	16789,32
535,56	16845,73
535,65	16756,01
535,75	16843,96
535,85	16813,66
535,94	16856,10
536,04	16970,60
536,14	16883,26
536,23	16878,81
536,33	16534,55
536,42	16330,40
536,52	16142,15
536,62	15996,33
536,71	15875,83
536,81	15828,37
536,90	15882,90
537,00	16043,56
537,10	16142,08
537,19	16295,89
537,29	16520,31
537,38	16570,03
537,48	16660,06
537,58	16681,01
537,67	16805,59
537,77	16884,69
537,86	17019,15
537,96	17021,29
538,06	17170,33
538,15	17271,00
538,25	17285,83
538,34	17230,46
538,44	16875,33
538,53	16588,04
538,63	16430,21
538,73	16181,36
538,82	15974,16
538,92	15740,99
539,01	15790,82
539,11	15778,57
539,20	15935,20
539,30	16132,05
539,39	16220,57
539,49	16549,94
539,59	16565,91
539,68	16885,77
539,78	17038,15
539,87	17201,76
539,97	17454,25
540,06	17503,52
540,16	17784,57
540,25	17747,80
540,35	17829,23
540,44	17677,03
540,54	17528,67
540,63	17146,49
540,73	17044,57
540,82	16415,00
540,92	16258,69
541,01	16042,40
541,11	16029,70
541,20	16046,52
541,30	16100,71
541,39	16438,12
541,49	16630,98
541,58	16858,22
541,68	17174,64
541,77	17307,91
541,87	17515,18
541,96	17723,44
542,06	17817,07
542,15	17970,94
542,25	18038,31
542,34	18203,59
542,44	18153,26
542,53	18224,58
542,63	17951,53
542,72	17833,36
542,82	17422,37
542,91	17012,68
543,01	16726,90
543,10	16328,75
543,20	16062,49
543,29	16034,38
543,38	16010,06
543,48	16094,29
543,57	16379,05
543,67	16643,70
543,76	16950,58
543,86	17263,32
543,95	17403,86
544,05	17576,35
544,14	17727,47
544,23	18026,01
544,33	18054,24
544,42	18107,37
544,52	18324,17
544,61	18252,88
544,71	18095,09
544,80	17992,36
544,89	17897,52
544,99	17715,01
545,08	17596,42
545,18	17367,25
545,27	17049,99
545,36	16981,00
545,46	16815,17
545,55	16864,82
545,65	16824,39
545,74	16860,48
545,84	17012,48
545,93	17107,14
546,02	17433,24
546,12	17591,72
546,21	17752,08
546,30	17953,18
546,40	17973,18
546,49	18096,59
546,59	18181,69
546,68	18331,09
546,77	18231,88
546,87	18259,07
546,96	18162,69
547,05	17957,06
547,15	17763,60
547,24	17726,09
547,34	17607,51
547,43	17629,37
547,52	17569,46
547,62	17448,78
547,71	17306,17
547,80	17110,62
547,90	16931,01
547,99	16876,60
548,08	16690,39
548,18	16676,80
548,27	16877,52
548,36	17120,91
548,46	17307,75
548,55	17690,63
548,64	17965,63
548,74	18106,51
548,83	18359,38
548,92	18409,96
549,02	18339,11
549,11	18433,57
549,20	18333,76
549,30	18183,68
549,39	18006,44
549,48	17953,67
549,58	17789,05
549,67	17827,42
549,76	17712,28
549,85	17802,13
549,95	17850,15
550,04	17925,56
550,13	17867,94
550,23	17750,67
550,32	17448,60
550,41	17393,55
550,50	17127,05
550,60	17118,17
550,69	17037,16
550,78	17096,82
550,88	17270,42
550,97	17468,83
551,06	17884,55
551,15	17916,25
551,25	18262,12
551,34	18303,99
551,43	18458,93
551,52	18463,70
551,62	18473,03
551,71	18399,63
551,80	18188,22
551,89	18158,60
551,99	18114,21
552,08	18047,19
552,17	18038,26
552,26	18155,70
552,36	18218,19
552,45	18500,87
552,54	18660,98
552,63	18796,70
552,73	18849,54
552,82	18778,72
552,91	18647,94
553,00	18576,78
553,10	18571,47
553,19	18480,03
553,28	18442,59
553,37	18335,02
553,46	18415,95
553,56	18615,13
553,65	18708,89
553,74	18869,49
553,83	18904,05
553,92	19115,29
554,02	19089,06
554,11	18975,32
554,20	18813,43
554,29	18724,95
554,38	18495,08
554,48	18404,67
554,57	18317,30
554,66	18333,17
554,75	18348,04
554,84	18470,97
554,94	18689,07
555,03	18919,16
555,12	19088,47
555,21	19203,54
555,30	19342,23
555,39	19259,06
555,49	19185,37
555,58	18815,46
555,67	18540,39
555,76	18467,45
555,85	18181,38
555,94	18081,78
556,03	17995,96
556,13	18175,97
556,22	18238,98
556,31	18547,35
556,40	18734,60
556,49	19039,57
556,58	19084,88
556,67	19206,03
556,77	19113,71
556,86	18954,91
556,95	18702,45
557,04	18618,63
557,13	18482,56
557,22	18521,37
557,31	18431,61
557,40	18629,16
557,50	18734,92
557,59	19003,88
557,68	19307,65
557,77	19428,73
557,86	19588,07
557,95	19692,11
558,04	19707,37
558,13	19654,31
558,22	19443,99
558,31	19379,24
558,41	18997,24
558,50	18801,00
558,59	18691,40
558,68	18478,70
558,77	18541,98
558,86	18507,54
558,95	18685,72
559,04	18935,21
559,13	19071,68
559,22	19344,26
559,31	19415,20
559,40	19431,65
559,49	19473,70
559,59	19238,16
559,68	19336,53
559,77	19278,02
559,86	19165,28
559,95	19232,87
560,04	19320,85
560,13	19416,73
560,22	19628,95
560,31	19757,09
560,40	19992,60
560,49	20283,24
560,58	20351,96
560,67	20627,98
560,76	20696,13
560,85	20826,37
560,94	20861,73
561,03	20779,79
561,12	20611,46
561,21	20299,24
561,30	19950,10
561,39	19771,03
561,48	19514,31
561,57	19286,39
561,66	19340,26
561,75	19316,01
561,84	19405,03
561,93	19502,00
562,02	19730,94
562,11	19742,01
562,20	19589,68
562,29	19434,04
562,38	19186,39
562,47	19039,16
562,56	18793,27
562,65	18735,33
562,74	18752,50
562,83	18839,80
562,92	19038,60
563,01	19256,56
563,10	19550,94
563,19	19677,25
563,28	19862,66
563,37	20007,29
563,46	20308,57
563,55	20238,16
563,64	20404,10
563,73	20559,84
563,82	20582,01
563,91	20729,83
564,00	20585,22
564,09	20470,02
564,18	20348,46
564,27	20209,55
564,35	19889,08
564,44	19720,23
564,53	19707,37
564,62	19487,31
564,71	19595,30
564,80	19476,93
564,89	19411,76
564,98	19381,32
565,07	19178,00
565,16	18985,65
565,25	18856,18
565,34	18689,11
565,43	18658,88
565,51	18642,67
565,60	18731,26
565,69	18859,80
565,78	19189,37
565,87	19460,93
565,96	19632,77
566,05	19828,20
566,14	19902,60
566,23	20077,60
566,32	20282,83
566,40	20354,24
566,49	20505,88
566,58	20608,48
566,67	20858,64
566,76	20926,14
566,85	21050,57
566,94	21040,80
567,03	21007,04
567,11	20829,08
567,20	20703,77
567,29	20403,26
567,38	20115,45
567,47	20025,26
567,56	19819,73
567,65	19656,16
567,73	19495,80
567,82	19486,22
567,91	19361,98
568,00	19281,75
568,09	19121,89
568,18	19007,43
568,27	18873,94
568,35	18740,16
568,44	18878,26
568,53	18746,63
568,62	18916,75
568,71	19160,08
568,80	19425,93
568,88	19563,42
568,97	19890,78
569,06	19867,07
569,15	20025,62
569,24	20078,41
569,32	20195,72
569,41	20236,01
569,50	20309,14
569,59	20397,90
569,68	20574,60
569,76	20789,22
569,85	20809,83
569,94	20960,26
570,03	20957,12
570,12	20999,20
570,20	21043,15
570,29	20854,07
570,38	20516,66
570,47	20432,62
570,56	20222,09
570,64	20023,59
570,73	19757,27
570,82	19604,39
570,91	19440,53
570,99	19267,00
571,08	19046,35
571,17	18906,03
571,26	18812,50
571,34	18742,72
571,43	18758,31
571,52	18819,30
571,61	18849,47
571,69	19108,29
571,78	19291,76
571,87	19419,74
571,96	19544,82
572,04	19697,13
572,13	19757,72
572,22	19880,31
572,31	19910,71
572,39	20039,41
572,48	20164,40
572,57	20197,44
572,66	20391,19
572,74	20616,93
572,83	20634,87
572,92	20835,23
573,00	20903,09
573,09	20893,19
573,18	21090,61
573,27	21126,90
573,35	21249,18
573,44	21115,69
573,53	20980,80
573,61	20812,83
573,70	20737,94
573,79	20519,94
573,87	20431,55
573,96	20143,47
574,05	19862,71
574,14	19523,80
574,22	19354,81
574,31	19084,38
574,40	19067,50
574,48	18836,50
574,57	18880,93
574,66	18898,21
574,74	18904,52
574,83	18963,12
574,92	19145,26
575,00	19213,35
575,09	19306,52
575,18	19406,61
575,26	19557,90
575,35	19497,79
575,43	19555,01
575,52	19831,93
575,61	19904,15
575,69	20070,21
575,78	20185,75
575,87	20334,09
575,95	20573,79
576,04	20584,00
576,13	20813,55
576,21	20868,85
576,30	21088,37
576,38	21113,00
576,47	21268,37
576,56	21411,66
576,64	21355,94
576,73	21417,54
576,82	21508,50
576,90	21404,14
576,99	21376,07
577,07	20994,95
577,16	20711,79
577,25	20587,23
577,33	20141,57
577,42	19828,11
577,50	19455,99
577,59	19333,16
577,68	18975,98
577,76	18971,77
577,85	18813,13
577,93	18812,34
578,02	18853,49
578,10	18858,06
578,19	19024,99
578,28	19039,57
578,36	19259,11
578,45	19205,28
578,53	19271,79
578,62	19538,58
578,70	19638,15
578,79	19767,53
578,88	19958,57
578,96	20106,21
579,05	20211,27
579,13	20326,49
579,22	20443,03
579,30	20651,66
579,39	20748,67
579,47	20965,60
579,56	21040,46
579,64	21155,99
579,73	21270,90
579,82	21406,42
579,90	21552,88
579,99	21712,17
580,07	21677,31
580,16	21737,21
580,24	21720,40
580,33	21516,47
580,41	21464,36
580,50	21302,29
580,58	20950,36
580,67	20765,47
580,75	20391,94
580,84	19995,47
580,92	19707,96
581,01	19552,46
581,09	19196,58
581,18	19136,38
581,26	18929,99
581,35	18777,36
581,43	18795,84
581,52	18892,79
581,60	18865,67
581,69	18901,40
581,77	19039,45
581,86	19153,91
581,94	19367,85
582,02	19574,08
582,11	19797,72
582,19	20008,92
582,28	20154,66
582,36	20401,75
582,45	20564,45
582,53	20754,12
582,62	20758,39
582,70	20958,86
582,79	21121,84
582,87	21172,73
582,96	21317,16
583,04	21488,38
583,12	21484,63
583,21	21602,73
583,29	21660,27
583,38	21783,45
583,46	21826,32
583,55	21826,02
583,63	21906,88
583,71	21955,45
583,80	21926,09
583,88	21743,41
583,97	21798,55
584,05	21449,79
584,13	21249,36
584,22	21010,66
584,30	20747,48
584,39	20395,71
584,47	19983,59
584,55	19826,94
584,64	19506,58
584,72	19327,31
584,81	19196,94
584,89	19118,05
584,97	19160,97
585,06	19251,34
585,14	19256,53
585,23	19327,85
585,31	19588,25
585,39	19641,40
585,48	19939,29
585,56	20056,11
585,64	20158,00
585,73	20425,29
585,81	20329,59
585,90	20581,94
585,98	20619,39
586,06	20913,15
586,15	20942,43
586,23	20919,56
586,31	21148,98
586,40	21109,48
586,48	21332,41
586,56	21313,02
586,65	21471,41
586,73	21553,78
586,81	21640,20
586,90	21685,51
586,98	21861,78
587,06	21883,67
587,15	21951,13
587,23	22040,82
587,31	22082,74
587,40	21944,03
587,48	21977,86
587,56	21693,08
587,65	21450,58
587,73	21260,68
587,81	20769,28
587,90	20313,25
587,98	19869,74
588,06	19493,63
588,14	19099,36
588,23	18862,01
588,31	18826,76
588,39	18711,19
588,48	18768,48
588,56	18887,80
588,64	18946,42
588,72	19272,35
588,81	19455,65
588,89	19634,62
588,97	19822,46
589,06	19867,95
589,14	20054,39
589,22	20312,28
589,30	20333,79
589,39	20479,60
589,47	20476,03
589,55	20670,51
589,63	20725,58
589,72	20849,89
589,80	20805,08
589,88	21002,11
589,96	21211,40
590,05	21233,72
590,13	21360,55
590,21	21458,17
590,29	21474,42
590,38	21573,29
590,46	21606,35
590,54	21809,64
590,62	21939,29
590,71	21949,75
590,79	21776,35
590,87	22161,04
590,95	22121,23
591,03	22036,44
591,12	22068,08
591,20	21914,95
591,28	21745,44
591,36	21452,86
591,44	21019,13
591,53	20743,48
591,61	20306,40
591,69	19984,11
591,77	19682,56
591,85	19488,80
591,94	19338,50
592,02	19225,82
592,10	19261,46
592,18	19484,19
592,26	19552,82
592,34	19749,61
592,43	19900,83
592,51	19980,22
592,59	20164,24
592,67	20429,68
592,75	20561,22
592,84	20572,61
592,92	20749,87
593,00	20804,52
593,08	21015,24
593,16	21013,30
593,24	21148,55
593,32	21255,24
593,41	21352,25
593,49	21387,55
593,57	21490,62
593,65	21678,64
593,73	21711,79
593,81	21747,77
593,89	21710,71
593,98	21871,18
594,06	21819,77
594,14	21946,36
594,22	22026,97
594,30	21941,80
594,38	22055,76
594,46	22286,37
594,54	22250,15
594,62	22157,02
594,71	22281,24
594,79	22251,30
594,87	22022,61
594,95	21902,75
595,03	21708,15
595,11	21255,83
595,19	21009,37
595,27	20652,36
595,35	20147,83
595,43	19915,41
595,52	19490,61
595,60	19292,92
595,68	19073,42
595,76	19047,27
595,84	19017,13
595,92	19164,02
596,00	19395,76
596,08	19563,87
596,16	19723,39
596,24	19912,79
596,32	19994,57
596,40	20091,00
596,48	20287,53
596,56	20438,54
596,64	20454,45
596,73	20533,49
596,81	20735,05
596,89	20709,83
596,97	20860,04
597,05	20948,96
597,13	21123,44
597,21	21133,48
597,29	21188,39
597,37	21380,55
597,45	21303,33
597,53	21548,11
597,61	21525,45
597,69	21653,26
597,77	21746,46
597,85	21700,79
597,93	21793,53
598,01	21850,54
598,09	21881,16
598,17	22008,66
598,25	21958,11
598,33	22107,85
598,41	22184,82
598,49	22068,48
598,57	22104,87
598,65	22054,97
598,73	21968,62
598,81	21794,00
598,89	21465,11
598,97	21126,27
599,05	20810,48
599,13	20418,33
599,21	20106,39
599,29	19780,07
599,37	19570,08
599,45	19447,96
599,53	19234,64
599,61	19255,49
599,69	19405,30
599,77	19377,32
599,85	19555,46
599,93	19770,06
600,00	19859,73
600,08	19959,99
600,16	20111,65
600,24	20243,51
600,32	20395,69
600,40	20370,40
600,48	20614,01
600,56	20589,74
600,64	20730,39
600,72	20845,69
600,80	20862,80
600,88	20958,05
600,96	21039,40
601,04	21002,30
601,12	21130,34
601,19	21116,46
601,27	21343,24
601,35	21427,39
601,43	21461,11
601,51	21530,60
601,59	21512,59
601,67	21632,31
601,75	21563,43
601,83	21689,40
601,91	21711,27
601,98	21845,91
602,06	21845,87
602,14	21911,60
602,22	21990,29
602,30	22004,62
602,38	21982,07
602,46	21960,46
602,54	21816,58
602,61	21698,05
602,69	21438,26
602,77	21166,49
602,85	20943,83
602,93	20624,57
603,01	20178,20
603,09	20015,43
603,17	19718,55
603,24	19640,27
603,32	19399,11
603,40	19326,90
603,48	19417,18
603,56	19365,12
603,64	19520,89
603,71	19565,77
603,79	19814,85
603,87	19882,23
603,95	19941,15
604,03	20026,75
604,11	20178,86
604,18	20270,09
604,26	20288,05
604,34	20519,75
604,42	20481,02
604,50	20627,34
604,57	20730,55
604,65	20717,62
604,73	20864,78
604,81	20916,35
604,89	20924,49
604,96	21021,80
605,04	21065,57
605,12	21082,25
605,20	21203,08
605,28	21218,52
605,35	21285,38
605,43	21427,55
605,51	21333,38
605,59	21400,57
605,67	21478,49
605,74	21512,63
605,82	21606,30
605,90	21597,69
605,98	21666,53
606,05	21666,62
606,13	21646,41
606,21	21693,03
606,29	21693,44
606,36	21666,89
606,44	21564,43
606,52	21429,20
606,60	21297,36
606,67	21069,03
606,75	20735,88
606,83	20567,96
606,91	20240,19
606,98	20050,32
607,06	19797,78
607,14	19652,97
607,22	19508,12
607,29	19446,54
607,37	19361,50
607,45	19349,53
607,52	19389,48
607,60	19455,35
607,68	19603,24
607,76	19618,40
607,83	19742,22
607,91	19829,24
607,99	19869,26
608,06	20038,28
608,14	20001,35
608,22	20175,79
608,30	20243,31
608,37	20342,54
608,45	20299,58
608,53	20400,12
608,60	20408,73
608,68	20386,04
608,76	20634,73
608,83	20728,92
608,91	20696,74
608,99	20739,18
609,06	20803,79
609,14	20839,61
609,22	21000,85
609,29	20980,67
609,37	21053,41
609,45	21025,28
609,52	21163,29
609,60	21062,52
609,68	21161,00
609,75	21193,23
609,83	21208,73
609,91	21268,41
609,98	21304,12
610,06	21365,90
610,13	21361,43
610,21	21469,29
610,29	21372,79
610,36	21370,51
610,44	21381,81
610,52	21251,37
610,59	21191,01
610,67	21101,43
610,74	20856,08
610,82	20740,72
610,90	20515,98
610,97	20437,18
611,05	20213,32
611,13	20095,92
611,20	20019,74
611,28	19955,63
611,35	19944,31
611,43	19855,57
611,51	19868,54
611,58	19678,85
611,66	19818,24
611,73	19689,47
611,81	19772,52
611,88	19685,18
611,96	19907,23
612,04	19895,07
612,11	19939,75
612,19	19935,54
612,26	19902,17
612,34	19975,34
612,41	20142,41
612,49	20071,79
612,57	20001,76
612,64	20160,31
612,72	20065,17
612,79	20179,51
612,87	20205,07
612,94	20184,08
613,02	20237,98
613,09	20309,57
613,17	20272,21
613,24	20326,47
613,32	20332,96
613,40	20309,97
613,47	20387,24
613,55	20233,55
613,62	20391,22
613,70	20374,90
613,77	20400,66
613,85	20455,98
613,92	20410,22
614,00	20378,06
614,07	20425,75
614,15	20435,69
614,22	20360,64
614,30	20299,65
614,37	20393,23
614,45	20184,58
614,52	20097,93
614,60	19978,19
614,67	19905,01
614,75	19630,72
614,82	19565,72
614,90	19430,63
614,97	19285,10
615,05	19076,45
615,12	18878,85
615,20	18831,30
615,27	18589,88
615,34	18696,23
615,42	18575,53
615,49	18520,51
615,57	18507,56
615,64	18445,68
615,72	18441,19
615,79	18459,24
615,87	18351,47
615,94	18511,29
616,02	18467,47
616,09	18319,41
616,16	18440,35
616,24	18515,38
616,31	18413,57
616,39	18535,31
616,46	18472,87
616,54	18566,90
616,61	18597,77
616,68	18522,00
616,76	18454,34
616,83	18486,56
616,91	18412,22
616,98	18477,68
617,06	18558,00
617,13	18440,26
617,20	18441,16
617,28	18378,27
617,35	18377,71
617,43	18431,36
617,50	18350,46
617,57	18282,14
>>>>>End Processed Spectral Data<<<<<
