SpectraSuite Datei
++++++++++++++++++++++++++++++++++++
Datum: Mon Jan 05 03:08:23 CET 2004
Benutzer: Student
Dark-Spektrum vorhanden: Ja
Referenz-Spektrum vorhanden: Nein
Zahl der probierten Teilspektren: 1
Spektrometer: USB2+H04734
Integrationszeit (usec): 3000 (USB2+H04734)
Spektren Durchschnitt berechnet: 100 (USB2+H04734)
Boxcar Glättung: 0 (USB2+H04734)
Dunkelstromkorrektur: Nein (USB2+H04734)
Puls/Lampe aktiviert: Nein (USB2+H04734)
Correct for Detector Non-linearity: Nein (USB2+H04734)
Streulichtkorrektur: Nein (USB2+H04734)
Anzahl Pixel in verarbeitetem Spektrum: 2048
>>>>>Begin Processed Spectral Data<<<<<
418,45	850,08
418,57	850,08
418,69	850,08
418,80	766,49
418,92	742,01
419,04	739,03
419,16	721,00
419,28	714,83
419,40	705,61
419,52	707,03
419,64	706,51
419,75	710,87
419,87	706,40
419,99	717,50
420,11	721,70
420,23	729,56
420,35	742,71
420,47	741,00
420,58	749,68
420,70	764,50
420,82	772,05
420,94	781,58
421,06	793,74
421,18	802,13
421,29	1339,08
421,41	2695,91
421,53	2738,91
421,65	2763,23
421,77	2784,74
421,89	2827,13
422,00	2827,07
422,12	2847,45
422,24	2843,77
422,36	2868,06
422,48	2864,44
422,59	2860,69
422,71	2879,45
422,83	2879,86
422,95	2892,01
423,07	2875,38
423,18	2889,51
423,30	2898,03
423,42	2891,07
423,54	2926,84
423,66	2950,20
423,77	2947,85
423,89	2949,01
424,01	2962,02
424,13	2945,05
424,25	2949,37
424,36	2969,71
424,48	2989,53
424,60	2979,99
424,72	2983,31
424,84	3003,02
424,95	2983,49
425,07	2994,11
425,19	3031,81
425,31	3033,59
425,42	3047,22
425,54	3034,97
425,66	3038,45
425,78	3053,84
425,89	3061,75
426,01	3041,91
426,13	3061,73
426,25	3091,17
426,36	3096,48
426,48	3089,91
426,60	3068,80
426,72	3098,04
426,83	3126,31
426,95	3108,84
427,07	3133,41
427,19	3166,74
427,30	3158,95
427,42	3138,25
427,54	3163,31
427,66	3120,64
427,77	3150,09
427,89	3170,70
428,01	3195,76
428,12	3179,01
428,24	3213,57
428,36	3207,94
428,48	3196,03
428,59	3203,44
428,71	3225,32
428,83	3205,54
428,94	3231,08
429,06	3231,78
429,18	3249,52
429,30	3241,23
429,41	3259,39
429,53	3246,40
429,65	3251,35
429,76	3259,30
429,88	3235,94
430,00	3237,95
430,11	3243,24
430,23	3254,83
430,35	3313,47
430,47	3336,30
430,58	3298,56
430,70	3367,32
430,82	3312,59
430,93	3334,65
431,05	3332,07
431,17	3358,87
431,28	3349,81
431,40	3343,10
431,52	3358,99
431,63	3343,60
431,75	3388,48
431,87	3398,46
431,98	3382,06
432,10	3389,56
432,22	3396,23
432,33	3373,67
432,45	3381,81
432,56	3368,39
432,68	3406,49
432,80	3406,01
432,91	3429,11
433,03	3444,07
433,15	3456,79
433,26	3469,42
433,38	3462,30
433,50	3492,54
433,61	3470,69
433,73	3475,43
433,84	3478,06
433,96	3473,94
434,08	3482,60
434,19	3475,32
434,31	3502,66
434,43	3513,15
434,54	3509,76
434,66	3520,04
434,77	3498,91
434,89	3495,80
435,01	3569,40
435,12	3526,37
435,24	3562,37
435,35	3527,03
435,47	3581,04
435,59	3571,34
435,70	3559,84
435,82	3582,73
435,93	3572,63
436,05	3575,88
436,17	3577,99
436,28	3601,69
436,40	3591,23
436,51	3623,63
436,63	3638,59
436,74	3613,80
436,86	3601,24
436,98	3645,33
437,09	3640,72
437,21	3658,14
437,32	3638,30
437,44	3682,84
437,55	3639,23
437,67	3695,52
437,79	3664,56
437,90	3673,35
438,02	3659,32
438,13	3677,24
438,25	3679,00
438,36	3731,22
438,48	3714,39
438,59	3755,00
438,71	3717,10
438,83	3748,10
438,94	3768,04
439,06	3740,60
439,17	3749,39
439,29	3756,22
439,40	3777,93
439,52	3767,74
439,63	3784,19
439,75	3799,36
439,86	3805,69
439,98	3820,08
440,09	3835,97
440,21	3856,83
440,32	3869,57
440,44	3845,82
440,55	3834,20
440,67	3842,68
440,78	3872,87
440,90	3885,01
441,01	3839,20
441,13	3883,69
441,24	3899,85
441,36	3912,60
441,47	3936,44
441,59	3898,56
441,70	3953,03
441,82	3957,73
441,93	3964,89
442,05	3932,71
442,16	3971,08
442,28	3974,56
442,39	3976,01
442,51	3978,25
442,62	4014,31
442,74	4015,69
442,85	4027,58
442,97	4027,87
443,08	4042,99
443,20	4066,18
443,31	4077,43
443,43	4102,36
443,54	4146,44
443,66	4097,32
443,77	4123,78
443,88	4148,70
444,00	4123,80
444,11	4128,39
444,23	4159,73
444,34	4150,31
444,46	4191,32
444,57	4152,39
444,69	4184,32
444,80	4198,22
444,91	4204,66
445,03	4258,13
445,14	4248,39
445,26	4232,18
445,37	4221,18
445,49	4248,41
445,60	4297,83
445,71	4286,71
445,83	4315,30
445,94	4299,95
446,06	4323,39
446,17	4326,58
446,29	4355,37
446,40	4353,35
446,51	4348,50
446,63	4348,34
446,74	4365,92
446,86	4373,90
446,97	4411,82
447,08	4430,21
447,20	4457,96
447,31	4493,78
447,43	4474,64
447,54	4520,94
447,65	4499,32
447,77	4473,76
447,88	4511,72
448,00	4501,73
448,11	4503,25
448,22	4524,17
448,34	4550,98
448,45	4552,47
448,56	4580,53
448,68	4615,13
448,79	4620,40
448,90	4597,82
449,02	4659,06
449,13	4619,31
449,25	4654,61
449,36	4697,39
449,47	4688,42
449,59	4710,09
449,70	4750,97
449,81	4690,16
449,93	4716,08
450,04	4776,98
450,15	4781,41
450,27	4832,44
450,38	4799,02
450,49	4823,01
450,61	4890,61
450,72	4835,94
450,83	4836,69
450,95	4846,61
451,06	4890,00
451,17	4943,67
451,29	4945,09
451,40	4952,16
451,51	4939,49
451,63	5007,08
451,74	4937,72
451,85	4968,98
451,97	5048,93
452,08	5065,63
452,19	5069,72
452,31	5040,30
452,42	5049,34
452,53	5078,49
452,65	5091,35
452,76	5093,97
452,87	5070,80
452,98	5087,66
453,10	5121,72
453,21	5161,58
453,32	5154,80
453,44	5196,88
453,55	5227,05
453,66	5253,47
453,77	5237,96
453,89	5267,84
454,00	5302,17
454,11	5287,14
454,23	5339,34
454,34	5408,40
454,45	5309,71
454,56	5347,77
454,68	5371,38
454,79	5408,13
454,90	5435,22
455,01	5396,63
455,13	5444,90
455,24	5433,78
455,35	5472,81
455,46	5466,91
455,58	5501,96
455,69	5552,94
455,80	5497,23
455,91	5564,42
456,03	5545,21
456,14	5593,03
456,25	5573,01
456,36	5625,91
456,48	5655,06
456,59	5629,71
456,70	5644,71
456,81	5692,44
456,92	5708,69
457,04	5715,06
457,15	5712,46
457,26	5688,80
457,37	5763,22
457,49	5776,84
457,60	5750,99
457,71	5775,64
457,82	5874,02
457,93	5854,04
458,05	5893,09
458,16	5833,45
458,27	5893,54
458,38	5877,59
458,49	6024,70
458,61	5923,23
458,72	5962,15
458,83	6024,47
458,94	5965,67
459,05	5996,18
459,17	5987,48
459,28	6041,40
459,39	6009,29
459,50	6053,06
459,61	6086,19
459,72	6140,95
459,84	6181,10
459,95	6151,91
460,06	6155,93
460,17	6195,11
460,28	6232,27
460,39	6264,72
460,51	6252,15
460,62	6333,01
460,73	6355,90
460,84	6319,59
460,95	6331,49
461,06	6335,95
461,18	6411,54
461,29	6437,05
461,40	6398,48
461,51	6402,88
461,62	6382,16
461,73	6462,18
461,84	6502,93
461,96	6522,29
462,07	6549,45
462,18	6517,93
462,29	6666,60
462,40	6635,40
462,51	6655,78
462,62	6626,52
462,73	6577,12
462,85	6646,72
462,96	6704,25
463,07	6723,53
463,18	6790,87
463,29	6811,93
463,40	6802,98
463,51	6821,63
463,62	6870,12
463,73	6874,08
463,85	6847,39
463,96	6921,76
464,07	6953,01
464,18	7010,30
464,29	6946,53
464,40	6993,94
464,51	6996,92
464,62	7049,31
464,73	7039,88
464,84	6954,96
464,95	7028,00
465,06	7154,57
465,18	7111,88
465,29	7173,37
465,40	7073,33
465,51	7196,62
465,62	7191,16
465,73	7223,02
465,84	7234,66
465,95	7310,95
466,06	7272,69
466,17	7305,57
466,28	7358,02
466,39	7342,04
466,50	7308,37
466,61	7412,35
466,72	7478,38
466,83	7449,75
466,95	7508,03
467,06	7555,44
467,17	7473,16
467,28	7642,28
467,39	7613,31
467,50	7676,30
467,61	7636,93
467,72	7554,99
467,83	7728,07
467,94	7688,72
468,05	7768,29
468,16	7717,31
468,27	7848,45
468,38	7856,56
468,49	7848,36
468,60	7952,42
468,71	7957,12
468,82	8003,34
468,93	7911,79
469,04	8032,58
469,15	8002,00
469,26	8095,02
469,37	8092,89
469,48	8193,93
469,59	8239,47
469,70	8173,48
469,81	8254,49
469,92	8277,97
470,03	8251,90
470,14	8357,52
470,25	8409,16
470,36	8358,38
470,47	8409,13
470,58	8458,38
470,69	8530,80
470,80	8561,31
470,91	8580,63
471,02	8589,85
471,13	8566,15
471,24	8636,61
471,35	8630,01
471,46	8800,97
471,56	8784,76
471,67	8859,02
471,78	8843,04
471,89	8943,86
472,00	8946,45
472,11	8949,08
472,22	9009,64
472,33	9062,11
472,44	9032,55
472,55	9093,66
472,66	9149,05
472,77	9238,08
472,88	9225,05
472,99	9204,89
473,10	9293,77
473,21	9310,51
473,32	9400,70
473,42	9333,34
473,53	9445,81
473,64	9438,10
473,75	9535,61
473,86	9543,82
473,97	9631,39
474,08	9625,08
474,19	9682,77
474,30	9669,69
474,41	9647,52
474,52	9731,45
474,62	9791,29
474,73	9900,76
474,84	9892,78
474,95	10010,74
475,06	9862,86
475,17	10003,78
475,28	9980,08
475,39	9974,79
475,50	10113,63
475,60	10131,06
475,71	10266,13
475,82	10238,67
475,93	10299,12
476,04	10310,10
476,15	10343,10
476,26	10484,45
476,37	10382,55
476,47	10549,73
476,58	10525,53
476,69	10637,32
476,80	10617,03
476,91	10675,72
477,02	10726,11
477,13	10790,22
477,23	10866,47
477,34	10868,60
477,45	10958,31
477,56	10880,35
477,67	10980,37
477,78	10940,37
477,89	11165,02
477,99	11101,76
478,10	11271,57
478,21	11354,16
478,32	11465,78
478,43	11393,24
478,54	11467,34
478,64	11386,07
478,75	11735,69
478,86	11626,00
478,97	11669,79
479,08	11723,08
479,18	11726,72
479,29	11824,57
479,40	11862,26
479,51	11911,89
479,62	11833,77
479,72	11940,50
479,83	11993,72
479,94	12043,98
480,05	12135,34
480,16	12124,63
480,26	12279,25
480,37	12345,12
480,48	12332,58
480,59	12467,38
480,70	12499,04
480,80	12428,71
480,91	12685,84
481,02	12634,61
481,13	12649,66
481,24	12800,14
481,34	12803,30
481,45	12894,06
481,56	12851,23
481,67	12983,14
481,77	13015,27
481,88	13059,43
481,99	13060,72
482,10	13331,29
482,20	13189,91
482,31	13259,63
482,42	13247,18
482,53	13299,36
482,63	13493,57
482,74	13542,83
482,85	13643,53
482,96	13578,90
483,06	13643,82
483,17	13697,70
483,28	13733,04
483,39	13816,43
483,49	13913,04
483,60	13975,11
483,71	13986,75
483,81	14075,47
483,92	14160,37
484,03	14349,18
484,14	14380,96
484,24	14423,80
484,35	14447,80
484,46	14436,05
484,57	14482,26
484,67	14577,27
484,78	14541,04
484,89	14714,66
484,99	14767,95
485,10	14907,16
485,21	14995,76
485,31	14969,80
485,42	14933,39
485,53	15049,64
485,63	15128,26
485,74	15276,03
485,85	15315,46
485,96	15260,01
486,06	15381,88
486,17	15492,36
486,28	15530,73
486,38	15603,41
486,49	15720,47
486,60	15633,26
486,70	15590,14
486,81	15646,01
486,92	15996,03
487,02	15918,41
487,13	15441,51
487,24	15627,07
487,34	15709,96
487,45	16113,14
487,56	16102,04
487,66	16257,15
487,77	16477,04
487,87	16372,13
487,98	16488,00
488,09	16506,48
488,19	16659,36
488,30	16587,04
488,41	16480,67
488,51	16580,60
488,62	16656,29
488,73	16933,20
488,83	16856,33
488,94	16947,55
489,04	17016,64
489,15	17125,67
489,26	17275,57
489,36	17346,03
489,47	17232,70
489,58	17318,44
489,68	17418,64
489,79	17335,86
489,89	17598,90
490,00	17544,58
490,11	17485,55
490,21	17649,05
490,32	17718,83
490,42	17689,55
490,53	17772,23
490,64	17688,62
490,74	17834,33
490,85	18073,13
490,95	18099,75
491,06	18223,63
491,16	18225,22
491,27	18223,23
491,38	18332,29
491,48	18289,08
491,59	18475,38
491,69	18444,96
491,80	18638,45
491,90	18629,05
492,01	18653,88
492,12	18653,75
492,22	18785,83
492,33	18814,65
492,43	18834,62
492,54	18867,89
492,64	18652,62
492,75	18713,18
492,86	18781,52
492,96	18975,66
493,07	19068,52
493,17	19201,30
493,28	19293,50
493,38	19334,54
493,49	19365,19
493,59	19496,93
493,70	19513,09
493,80	19616,32
493,91	19562,67
494,01	19676,39
494,12	19696,30
494,22	19762,58
494,33	19734,17
494,43	19814,17
494,54	19975,81
494,64	19890,91
494,75	19873,83
494,86	20024,85
494,96	20025,64
495,07	20029,73
495,17	20131,56
495,28	20241,39
495,38	20144,85
495,49	20160,85
495,59	20228,69
495,69	20383,78
495,80	20282,38
495,90	20338,88
496,01	20524,21
496,11	20628,23
496,22	20670,15
496,32	20698,78
496,43	20689,22
496,53	20700,36
496,64	20833,64
496,74	20827,23
496,85	20839,00
496,95	20928,76
497,06	21047,67
497,16	20976,01
497,27	21199,22
497,37	21148,73
497,48	21090,50
497,58	21194,36
497,68	21161,75
497,79	21137,68
497,89	21299,01
498,00	21442,53
498,10	21420,45
498,21	21497,76
498,31	21406,56
498,42	21483,23
498,52	21582,28
498,62	21440,25
498,73	21766,46
498,83	21850,93
498,94	21780,24
499,04	21925,41
499,15	21704,31
499,25	21780,17
499,35	21977,66
499,46	22021,66
499,56	22118,15
499,67	22035,42
499,77	22115,35
499,87	22357,69
499,98	22068,66
500,08	22087,37
500,19	22152,41
500,29	22288,97
500,39	22292,20
500,50	22442,37
500,60	22354,12
500,71	22374,58
500,81	22596,08
500,91	22519,23
501,02	22636,20
501,12	22711,61
501,22	22670,43
501,33	22683,09
501,43	22690,73
501,54	22822,74
501,64	22842,02
501,74	22867,06
501,85	22937,34
501,95	22795,15
502,05	23113,15
502,16	22962,76
502,26	23158,76
502,37	22988,89
502,47	23054,42
502,57	23034,49
502,68	23052,89
502,78	23137,13
502,88	23203,59
502,99	23297,15
503,09	23267,52
503,19	23192,41
503,30	23415,36
503,40	23493,55
503,50	23404,15
503,61	23638,86
503,71	23634,11
503,81	23495,09
503,92	23464,72
504,02	23497,80
504,12	23523,97
504,23	23684,60
504,33	23695,76
504,43	23931,60
504,54	23938,83
504,64	23625,98
504,74	23936,03
504,84	23872,32
504,95	24169,17
505,05	24021,24
505,15	23957,77
505,26	24012,70
505,36	24005,06
505,46	24163,03
505,56	24428,60
505,67	24337,46
505,77	24357,48
505,87	24382,07
505,98	24473,03
506,08	24431,15
506,18	24437,57
506,28	24434,45
506,39	24543,45
506,49	24516,64
506,59	24633,52
506,70	24597,05
506,80	24873,90
506,90	24786,60
507,00	24819,32
507,11	24713,23
507,21	24856,07
507,31	25147,99
507,41	24704,07
507,52	24896,02
507,62	24968,90
507,72	25021,76
507,82	25047,14
507,93	25164,20
508,03	25193,17
508,13	25176,33
508,23	25242,36
508,34	25182,48
508,44	25388,46
508,54	25294,25
508,64	25463,47
508,74	25330,41
508,85	25428,03
508,95	25630,87
509,05	25497,21
509,15	25594,51
509,26	25667,87
509,36	25720,88
509,46	25820,77
509,56	25740,52
509,66	25780,00
509,77	25846,42
509,87	25940,81
509,97	25895,70
510,07	25969,67
510,17	26093,28
510,28	26005,98
510,38	26011,75
510,48	26220,42
510,58	26146,70
510,68	26232,91
510,78	26241,28
510,89	26222,07
510,99	26268,01
511,09	26340,14
511,19	26336,84
511,29	26437,34
511,39	26475,35
511,50	26506,35
511,60	26369,50
511,70	26315,94
511,80	26370,70
511,90	26543,19
512,00	26720,90
512,11	26821,60
512,21	26760,00
512,31	26794,35
512,41	26808,15
512,51	26923,47
512,61	26953,91
512,71	26806,39
512,82	26884,36
512,92	26706,91
513,02	27013,69
513,12	26978,23
513,22	27175,04
513,32	27132,96
513,42	27228,64
513,53	27256,57
513,63	27365,65
513,73	27353,79
513,83	27456,57
513,93	27542,01
514,03	27445,27
514,13	27360,82
514,23	27369,20
514,33	27594,17
514,44	27458,26
514,54	27264,98
514,64	27066,50
514,74	27311,15
514,84	27417,97
514,94	27815,00
515,04	27617,04
515,14	27648,74
515,24	27642,30
515,34	27448,14
515,44	27722,59
515,55	27738,03
515,65	27647,59
515,75	27534,19
515,85	27476,68
515,95	27664,88
516,05	28004,78
516,15	27867,34
516,25	28024,26
516,35	28000,60
516,45	27867,04
516,55	28064,75
516,65	28210,40
516,75	28309,06
516,85	28218,11
516,95	28165,34
517,05	28289,86
517,16	28452,29
517,26	28566,25
517,36	28661,80
517,46	28659,07
517,56	28663,04
517,66	28548,54
517,76	28604,92
517,86	28725,44
517,96	28739,31
518,06	28581,15
518,16	29066,29
518,26	28957,45
518,36	28903,49
518,46	28752,13
518,56	28804,89
518,66	29251,19
518,76	29263,68
518,86	29267,73
518,96	29234,03
519,06	29302,82
519,16	29277,08
519,26	29413,40
519,36	29374,57
519,46	29522,70
519,56	29562,59
519,66	29476,13
519,76	29513,26
519,86	29746,90
519,96	29749,79
520,06	29776,75
520,16	29734,54
520,26	29817,66
520,36	29918,72
520,46	29788,10
520,56	29807,26
520,66	29941,92
520,76	30008,82
520,86	29922,13
520,96	30070,24
521,06	30157,01
521,16	29999,21
521,26	30206,78
521,35	30190,64
521,45	30036,43
521,55	30257,33
521,65	30414,05
521,75	30280,09
521,85	30168,95
521,95	30326,32
522,05	30248,83
522,15	30280,22
522,25	30367,81
522,35	30369,30
522,45	29415,79
522,55	30436,85
522,65	30733,70
522,75	30379,18
522,85	30491,29
522,94	30454,36
523,04	30204,27
523,14	29988,59
523,24	30084,88
523,34	30136,16
523,44	30594,77
523,54	30684,93
523,64	30885,40
523,74	30777,16
523,84	30634,00
523,94	30667,17
524,03	30781,68
524,13	31013,15
524,23	31223,00
524,33	31162,01
524,43	31145,46
524,53	31289,96
524,63	30955,16
524,73	30984,61
524,83	30815,48
524,92	31086,66
525,02	31333,98
525,12	31408,44
525,22	31389,34
525,32	31542,67
525,42	31515,40
525,52	31366,09
525,61	31395,29
525,71	31618,90
525,81	31614,94
525,91	31850,94
526,01	31725,09
526,11	31656,59
526,21	31735,39
526,30	31682,04
526,40	31761,00
526,50	31779,32
526,60	31862,46
526,70	31677,52
526,80	31952,09
526,89	32024,51
526,99	31711,37
527,09	31791,48
527,19	31785,15
527,29	31824,90
527,39	32074,32
527,48	32048,63
527,58	32135,29
527,68	32270,63
527,78	32196,92
527,88	32201,55
527,97	32172,67
528,07	32232,42
528,17	32283,60
528,27	32319,22
528,37	32098,50
528,46	32311,51
528,56	32327,10
528,66	32430,51
528,76	32600,16
528,86	32539,73
528,95	32414,18
529,05	32508,21
529,15	32592,97
529,25	32485,36
529,35	32511,71
529,44	32601,90
529,54	32587,73
529,64	32537,65
529,74	32667,21
529,83	32728,88
529,93	32625,09
530,03	32868,31
530,13	32808,63
530,22	32659,19
530,32	32873,19
530,42	32656,34
530,52	32763,77
530,61	33001,32
530,71	32826,03
530,81	32938,34
530,91	32944,63
531,00	33080,71
531,10	32906,21
531,20	33042,39
531,30	32791,00
531,39	33102,70
531,49	33054,59
531,59	33010,93
531,69	33124,51
531,78	32935,86
531,88	33194,83
531,98	33146,79
532,07	33145,30
532,17	33179,38
532,27	32864,40
532,37	33315,42
532,46	33167,13
532,56	33323,21
532,66	33317,99
532,75	33405,45
532,85	33370,51
532,95	33344,66
533,04	33334,92
533,14	33419,28
533,24	33435,73
533,34	33414,19
533,43	33585,76
533,53	33380,21
533,63	33526,64
533,72	33560,90
533,82	33448,02
533,92	33734,66
534,01	33405,68
534,11	33558,94
534,21	33643,88
534,30	33644,79
534,40	33553,04
534,50	33518,17
534,59	33584,45
534,69	33823,99
534,79	33847,54
534,88	33642,39
534,98	33783,50
535,08	33523,80
535,17	33585,15
535,27	34064,23
535,36	33998,54
535,46	33849,57
535,56	33973,57
535,65	33745,78
535,75	33928,28
535,85	33810,09
535,94	33847,83
536,04	33933,73
536,14	33877,10
536,23	34140,80
536,33	33916,44
536,42	33830,68
536,52	34029,84
536,62	34162,92
536,71	33953,98
536,81	34055,31
536,90	34143,87
537,00	34180,73
537,10	34010,29
537,19	34103,92
537,29	34260,75
537,38	34258,94
537,48	34218,20
537,58	34177,20
537,67	34338,96
537,77	34323,35
537,86	34391,75
537,96	34074,15
538,06	34175,30
538,15	34287,78
538,25	34361,20
538,34	34478,42
538,44	34306,08
538,53	34256,39
538,63	34368,14
538,73	34476,86
538,82	34491,23
538,92	34326,26
539,01	34551,05
539,11	34586,28
539,20	34630,98
539,30	34543,20
539,39	34530,53
539,49	34662,23
539,59	34372,36
539,68	34885,21
539,78	34786,61
539,87	34743,58
539,97	34821,98
540,06	34616,99
540,16	34860,48
540,25	34590,10
540,35	34777,84
540,44	34770,61
540,54	34761,28
540,63	34618,03
540,73	35194,83
540,82	34564,00
540,92	34799,11
541,01	34706,75
541,11	35040,93
541,20	35000,05
541,30	34892,42
541,39	35058,31
541,49	34908,28
541,58	34901,09
541,68	35108,30
541,77	35041,63
541,87	34971,22
541,96	35118,62
542,06	35128,82
542,15	35142,78
542,25	35019,69
542,34	35260,18
542,44	35062,76
542,53	35265,51
542,63	35074,58
542,72	35178,92
542,82	35154,06
542,91	35094,63
543,01	35291,57
543,10	35243,12
543,20	35242,44
543,29	35268,79
543,38	35325,53
543,48	35299,57
543,57	35340,99
543,67	35234,01
543,76	35262,44
543,86	35403,41
543,95	35305,04
544,05	35238,21
544,14	35294,28
544,23	35518,25
544,33	35337,71
544,42	35219,68
544,52	35490,91
544,61	35597,84
544,71	35498,28
544,80	35499,27
544,89	35580,89
544,99	35622,41
545,08	35610,50
545,18	35707,13
545,27	35439,50
545,36	35816,39
545,46	35555,97
545,55	35736,51
545,65	35609,55
545,74	35648,78
545,84	35766,29
545,93	35652,17
546,02	35871,12
546,12	35835,15
546,21	35852,53
546,30	35957,36
546,40	35773,77
546,49	35818,99
546,59	35838,49
546,68	35935,46
546,77	35679,60
546,87	35843,51
546,96	35956,82
547,05	35896,37
547,15	35843,33
547,24	35928,82
547,34	35904,16
547,43	35997,63
547,52	35993,31
547,62	35901,54
547,71	36041,47
547,80	35944,18
547,90	36044,14
547,99	36219,64
548,08	36022,53
548,18	36019,01
548,27	36151,82
548,36	36172,88
548,46	35964,93
548,55	36210,96
548,64	36282,96
548,74	36071,21
548,83	36326,71
548,92	36336,11
549,02	36156,56
549,11	36297,96
549,20	36363,32
549,30	36215,18
549,39	36276,24
549,48	36336,63
549,58	36150,60
549,67	36401,78
549,76	36336,81
549,85	36456,56
549,95	36350,34
550,04	36485,59
550,13	36515,24
550,23	36473,78
550,32	36397,39
550,41	36625,77
550,50	36440,26
550,60	36650,15
550,69	36572,60
550,78	36543,54
550,88	36568,01
550,97	36492,98
551,06	36755,87
551,15	36278,05
551,25	36748,84
551,34	36620,87
551,43	36650,83
551,52	36661,95
551,62	36761,68
551,71	36772,84
551,80	36615,15
551,89	36711,15
551,99	36786,04
552,08	36736,37
552,17	36830,13
552,26	36841,04
552,36	36595,06
552,45	36847,42
552,54	36786,81
552,63	36807,39
552,73	36881,97
552,82	36820,34
552,91	36812,86
553,00	36906,15
553,10	37096,02
553,19	37025,58
553,28	37105,87
553,37	36908,30
553,46	36976,34
553,56	36984,81
553,65	36988,34
553,74	37151,29
553,83	37024,65
553,92	37232,78
554,02	37143,11
554,11	37170,37
554,20	37192,60
554,29	37264,74
554,38	37112,15
554,48	37187,84
554,57	37235,18
554,66	37392,46
554,75	37246,43
554,84	37209,42
554,94	37295,22
555,03	37254,98
555,12	37236,02
555,21	37276,67
555,30	37387,94
555,39	37317,26
555,49	37552,44
555,58	37316,49
555,67	37307,72
555,76	37639,64
555,85	37332,65
555,94	37366,29
556,03	37306,45
556,13	37629,38
556,22	37348,85
556,31	37587,42
556,40	37460,12
556,49	37574,74
556,58	37442,61
556,67	37608,01
556,77	37622,36
556,86	37800,34
556,95	37421,37
557,04	37441,61
557,13	37422,79
557,22	37592,64
557,31	37484,84
557,40	37664,18
557,50	37578,49
557,59	37481,82
557,68	37702,92
557,77	37657,65
557,86	37768,34
557,95	37756,43
558,04	37675,69
558,13	37643,96
558,22	37504,05
558,31	37852,70
558,41	37663,24
558,50	37615,10
558,59	37700,82
558,68	37625,04
558,77	37808,27
558,86	37652,68
558,95	37741,02
559,04	37825,67
559,13	37650,58
559,22	37841,47
559,31	37785,67
559,40	37761,81
559,49	37982,35
559,59	37618,81
559,68	37923,12
559,77	37946,82
559,86	37701,65
559,95	37777,27
560,04	37819,07
560,13	37949,71
560,22	37813,65
560,31	37748,09
560,40	37778,58
560,49	37977,65
560,58	37743,84
560,67	37951,84
560,76	37944,83
560,85	37854,55
560,94	37845,72
561,03	37942,91
561,12	37962,30
561,21	37971,91
561,30	37812,66
561,39	38083,29
561,48	37932,72
561,57	37811,46
561,66	38082,52
561,75	37966,73
561,84	37841,11
561,93	37832,20
562,02	38120,85
562,11	38105,98
562,20	37940,70
562,29	38090,75
562,38	38051,65
562,47	37963,72
562,56	37899,43
562,65	37993,94
562,74	38017,19
562,83	38073,71
562,92	38217,64
563,01	38103,92
563,10	38271,04
563,19	38121,98
563,28	37973,37
563,37	38018,55
563,46	38333,16
563,55	37850,76
563,64	37970,01
563,73	38046,80
563,82	37914,48
563,91	38082,61
564,00	38001,67
564,09	38040,83
564,18	38087,81
564,27	38340,28
564,35	38092,33
564,44	37871,28
564,53	38192,04
564,62	38100,94
564,71	38333,68
564,80	38016,11
564,89	37941,44
564,98	38027,77
565,07	37979,88
565,16	38027,86
565,25	37945,76
565,34	38088,63
565,43	38103,47
565,51	38026,75
565,60	38066,73
565,69	38086,00
565,78	38228,94
565,87	38234,02
565,96	38122,16
566,05	38123,36
566,14	38035,09
566,23	38282,36
566,32	38198,91
566,40	38062,48
566,49	38138,68
566,58	38107,50
566,67	38218,43
566,76	38151,40
566,85	38256,37
566,94	38104,33
567,03	38042,50
567,11	38104,60
567,20	38179,49
567,29	38119,45
567,38	37989,04
567,47	38191,70
567,56	38178,86
567,65	38076,33
567,73	38105,42
567,82	38076,74
567,91	38013,73
568,00	38117,28
568,09	38049,55
568,18	38192,06
568,27	38209,32
568,35	38030,44
568,44	38405,75
568,53	37990,82
568,62	38003,02
568,71	38099,38
568,80	38167,18
568,88	38005,49
568,97	38199,85
569,06	38005,08
569,15	38091,11
569,24	38048,99
569,32	38084,40
569,41	37960,34
569,50	37923,61
569,59	38052,26
569,68	38134,97
569,76	38216,28
569,85	38002,55
569,94	38138,64
570,03	37954,89
570,12	38127,59
570,20	38340,35
570,29	38084,74
570,38	37807,96
570,47	38160,83
570,56	38221,59
570,64	38094,70
570,73	37858,26
570,82	37972,18
570,91	38125,69
570,99	38005,22
571,08	37975,52
571,17	37927,66
571,26	37910,14
571,34	37929,58
571,43	37998,10
571,52	38010,16
571,61	37882,42
571,69	38005,71
571,78	38089,28
571,87	37971,41
571,96	37912,49
572,04	38013,15
572,13	37890,80
572,22	37928,18
572,31	37916,38
572,39	38031,63
572,48	37934,05
572,57	37848,41
572,66	37861,94
572,74	38000,54
572,83	37795,32
572,92	37973,26
573,00	37810,83
573,09	37679,19
573,18	37779,30
573,27	37743,89
573,35	37950,62
573,44	37767,05
573,53	37658,17
573,61	37648,98
573,70	37787,01
573,79	37765,49
573,87	37904,04
573,96	37782,83
574,05	37831,30
574,14	37765,63
574,22	37916,61
574,31	37692,34
574,40	37950,17
574,48	37697,27
574,57	37854,69
574,66	37785,02
574,74	37685,61
574,83	37658,06
574,92	37705,22
575,00	37494,56
575,09	37503,31
575,18	37682,13
575,26	37864,79
575,35	37525,75
575,43	37476,85
575,52	37729,02
575,61	37633,23
575,69	37612,82
575,78	37435,87
575,87	37566,92
575,95	37769,92
576,04	37546,38
576,13	37567,80
576,21	37547,53
576,30	37724,77
576,38	37561,05
576,47	37517,86
576,56	37602,97
576,64	37355,11
576,73	37426,45
576,82	37576,53
576,90	37603,69
576,99	37725,40
577,07	37435,40
577,16	37300,35
577,25	37617,65
577,33	37316,80
577,42	37418,47
577,50	37267,00
577,59	37557,70
577,68	37176,94
577,76	37379,27
577,85	37214,86
577,93	37304,85
578,02	37343,67
578,10	37188,36
578,19	37430,86
578,28	37213,98
578,36	37417,93
578,45	37219,47
578,53	37187,07
578,62	37448,78
578,70	37451,60
578,79	37216,42
578,88	37298,21
578,96	37263,95
579,05	37189,64
579,13	37180,69
579,22	37097,35
579,30	37246,61
579,39	36998,39
579,47	37200,63
579,56	37200,72
579,64	37055,82
579,73	37021,42
579,82	37061,47
579,90	37057,33
579,99	37276,01
580,07	37093,60
580,16	37170,53
580,24	37129,19
580,33	36866,47
580,41	36964,86
580,50	37068,95
580,58	36831,44
580,67	37096,22
580,75	37013,15
580,84	36828,59
580,92	36888,41
581,01	37051,41
581,09	36819,87
581,18	37112,09
581,26	36887,53
581,35	36711,17
581,43	36849,02
581,52	36995,71
581,60	36844,34
581,69	36778,38
581,77	36827,10
581,86	36821,47
581,94	36819,03
582,02	36770,08
582,11	36866,76
582,19	36745,29
582,28	36649,43
582,36	36740,25
582,45	36791,06
582,53	36918,37
582,62	36561,80
582,70	36648,53
582,79	36604,46
582,87	36586,00
582,96	36700,78
583,04	36768,16
583,12	36645,75
583,21	36602,20
583,29	36593,50
583,38	36793,61
583,46	36694,45
583,55	36627,33
583,63	36614,81
583,71	36531,42
583,80	36591,99
583,88	36453,53
583,97	36699,87
584,05	36446,54
584,13	36522,93
584,22	36716,80
584,30	36632,53
584,39	36561,19
584,47	36428,40
584,55	36546,18
584,64	36471,09
584,72	36476,83
584,81	36375,45
584,89	36405,98
584,97	36362,16
585,06	36383,45
585,14	36398,70
585,23	36177,06
585,31	36422,41
585,39	36164,11
585,48	36381,24
585,56	36434,70
585,64	36303,38
585,73	36501,84
585,81	36095,68
585,90	36222,98
585,98	36173,67
586,06	36530,77
586,15	36346,23
586,23	36198,30
586,31	36344,99
586,40	36102,37
586,48	36323,23
586,56	36145,42
586,65	36163,66
586,73	36294,86
586,81	36162,71
586,90	36055,59
586,98	36209,06
587,06	36103,16
587,15	36027,46
587,23	36171,14
587,31	36264,38
587,40	36035,73
587,48	36172,59
587,56	36118,98
587,65	36097,76
587,73	36302,53
587,81	36054,46
587,90	35994,13
587,98	35943,91
588,06	35960,14
588,14	35995,84
588,23	35955,28
588,31	36045,00
588,39	35918,83
588,48	36024,52
588,56	36003,44
588,64	35849,93
588,72	36073,88
588,81	36036,05
588,89	35986,65
588,97	35919,17
589,06	35805,16
589,14	35888,05
589,22	36052,41
589,30	35940,59
589,39	35898,47
589,47	35693,50
589,55	35839,92
589,63	35764,28
589,72	35857,66
589,80	35733,82
589,88	35843,33
589,96	36130,78
590,05	35952,84
590,13	35982,29
590,21	35891,69
590,29	35736,64
590,38	35845,41
590,46	35617,82
590,54	35922,38
590,62	35928,30
590,71	35754,81
590,79	35384,99
590,87	35898,13
590,95	35682,72
591,03	35741,39
591,12	35921,90
591,20	35832,71
591,28	35892,95
591,36	35929,63
591,44	35746,45
591,53	35830,40
591,61	35736,05
591,69	35890,36
591,77	35807,33
591,85	35758,09
591,94	35741,37
592,02	35611,70
592,10	35727,47
592,18	35963,01
592,26	35884,64
592,34	35895,60
592,43	35908,25
592,51	35771,42
592,59	35838,40
592,67	36048,20
592,75	36016,36
592,84	35690,32
592,92	35845,97
593,00	35785,14
593,08	36017,15
593,16	35900,23
593,24	35914,42
593,32	35985,63
593,41	36018,87
593,49	35889,18
593,57	35971,14
593,65	36107,12
593,73	36159,32
593,81	36165,85
593,89	35957,43
593,98	36179,77
594,06	36107,75
594,14	36144,54
594,22	36086,46
594,30	36001,36
594,38	36179,41
594,46	36387,34
594,54	36351,88
594,62	36074,58
594,71	36343,63
594,79	36320,49
594,87	36022,13
594,95	36137,04
595,03	36194,01
595,11	36023,48
595,19	36164,45
595,27	36158,51
595,35	36108,36
595,43	36265,74
595,52	36062,19
595,60	36204,58
595,68	36062,13
595,76	36074,22
595,84	35953,11
595,92	35930,54
596,00	36105,99
596,08	36144,16
596,16	36097,47
596,24	36020,88
596,32	35969,52
596,40	35940,55
596,48	35975,71
596,56	36000,82
596,64	35960,39
596,73	35946,85
596,81	36100,34
596,89	35723,63
596,97	35863,67
597,05	35708,69
597,13	35839,17
597,21	35920,89
597,29	35720,62
597,37	35970,17
597,45	35775,99
597,53	36069,20
597,61	35804,82
597,69	35945,31
597,77	36037,18
597,85	35718,02
597,93	35736,35
598,01	35718,47
598,09	35789,12
598,17	35875,87
598,25	35627,85
598,33	35841,39
598,41	35841,23
598,49	35539,90
598,57	35571,18
598,65	35630,16
598,73	35667,94
598,81	35694,61
598,89	35630,95
598,97	35554,64
599,05	35685,14
599,13	35596,08
599,21	35607,09
599,29	35654,16
599,37	35809,14
599,45	35667,02
599,53	35472,17
599,61	35451,75
599,69	35664,51
599,77	35446,48
599,85	35484,45
599,93	35581,41
600,00	35460,83
600,08	35328,43
600,16	35481,67
600,24	35504,69
600,32	35481,49
600,40	35263,86
600,48	35601,69
600,56	35301,35
600,64	35321,01
600,72	35368,86
600,80	35334,87
600,88	35346,98
600,96	35250,96
601,04	34960,78
601,12	35086,92
601,19	35049,72
601,27	35119,60
601,35	35340,49
601,43	35275,89
601,51	35211,41
601,59	35033,47
601,67	35269,65
601,75	34977,61
601,83	35132,64
601,91	35039,35
601,98	34990,99
602,06	34977,39
602,14	35063,85
602,22	35111,98
602,30	34970,43
602,38	35019,73
602,46	35019,33
602,54	34955,56
602,61	34886,92
602,69	34966,70
602,77	34944,17
602,85	34851,78
602,93	34757,19
603,01	34596,56
603,09	34893,34
603,17	34730,27
603,24	34915,56
603,32	34822,45
603,40	34680,62
603,48	34823,40
603,56	34632,02
603,64	34690,21
603,71	34725,30
603,79	34906,54
603,87	34735,43
603,95	34696,40
604,03	34545,40
604,11	34699,40
604,18	34665,42
604,26	34550,41
604,34	34754,70
604,42	34639,18
604,50	34626,59
604,57	34572,90
604,65	34408,90
604,73	34589,60
604,81	34629,64
604,89	34478,01
604,96	34544,13
605,04	34460,27
605,12	34375,82
605,20	34353,02
605,28	34366,60
605,35	34370,53
605,43	34508,22
605,51	34267,84
605,59	34164,95
605,67	34262,53
605,74	34411,39
605,82	34389,11
605,90	34287,75
605,98	34221,52
606,05	34202,87
606,13	34068,46
606,21	34211,17
606,29	34179,71
606,36	34169,79
606,44	34098,81
606,52	34089,79
606,60	34087,85
606,67	34069,16
606,75	33872,60
606,83	33945,82
606,91	33834,45
606,98	33937,50
607,06	33848,40
607,14	33930,45
607,22	33914,50
607,29	33874,52
607,37	33791,22
607,45	33757,44
607,52	33679,86
607,60	33730,71
607,68	33840,90
607,76	33676,56
607,83	33635,79
607,91	33690,96
607,99	33576,93
608,06	33655,91
608,14	33628,83
608,22	33598,66
608,30	33562,96
608,37	33561,06
608,45	33432,70
608,53	33451,89
608,60	33365,70
608,68	33183,06
608,76	33501,76
608,83	33577,24
608,91	33381,63
608,99	33354,94
609,06	33439,98
609,14	33398,96
609,22	33562,69
609,29	33488,32
609,37	33407,55
609,45	33292,98
609,52	33310,04
609,60	33162,88
609,68	33210,09
609,75	33285,84
609,83	33239,04
609,91	33231,62
609,98	33250,15
610,06	33196,21
610,13	33087,29
610,21	33161,59
610,29	32989,93
610,36	32992,19
610,44	33096,10
610,52	33066,63
610,59	33041,62
610,67	32972,74
610,74	32829,62
610,82	32928,22
610,90	32934,37
610,97	32987,25
611,05	32862,57
611,13	32898,19
611,20	32794,55
611,28	32860,11
611,35	32896,54
611,43	32740,38
611,51	32704,93
611,58	32581,43
611,66	32782,71
611,73	32656,63
611,81	32750,26
611,88	32419,35
611,96	32799,02
612,04	32639,01
612,11	32708,97
612,19	32585,67
612,26	32467,58
612,34	32551,73
612,41	32682,26
612,49	32506,72
612,57	32307,29
612,64	32453,93
612,72	32275,40
612,79	32455,28
612,87	32324,64
612,94	32108,22
613,02	32266,70
613,09	32282,56
613,17	32031,14
613,24	32128,92
613,32	32100,96
613,40	32026,39
613,47	32172,46
613,55	31844,63
613,62	32024,08
613,70	31970,73
613,77	31953,53
613,85	31932,86
613,92	31851,66
614,00	31791,57
614,07	31917,06
614,15	31801,83
614,22	31727,48
614,30	31577,18
614,37	31788,57
614,45	31562,90
614,52	31518,40
614,60	31528,57
614,67	31671,14
614,75	31516,35
614,82	31535,85
614,90	31429,28
614,97	31439,29
615,05	31368,10
615,12	31241,14
615,20	31317,21
615,27	31118,98
615,34	31283,00
615,42	31116,74
615,49	31148,31
615,57	31059,82
615,64	30921,06
615,72	31004,20
615,79	30932,23
615,87	30786,99
615,94	30879,46
616,02	30847,89
616,09	30555,60
616,16	30595,83
616,24	30607,44
616,31	30349,87
616,39	30500,94
616,46	30352,69
616,54	30408,60
616,61	30264,67
616,68	30088,52
616,76	29950,40
616,83	29905,63
616,91	29952,21
616,98	30018,94
617,06	30081,92
617,13	29808,93
617,20	29805,95
617,28	29612,76
617,35	29603,18
617,43	29577,05
617,50	29380,79
617,57	29335,14
>>>>>End Processed Spectral Data<<<<<
