SpectraSuite Datei
++++++++++++++++++++++++++++++++++++
Datum: Mon Jan 05 02:08:36 CET 2004
Benutzer: Student
Dark-Spektrum vorhanden: Ja
Referenz-Spektrum vorhanden: Nein
Zahl der probierten Teilspektren: 1
Spektrometer: USB2+H04734
Integrationszeit (usec): 400000 (USB2+H04734)
Spektren Durchschnitt berechnet: 1 (USB2+H04734)
Boxcar Glättung: 0 (USB2+H04734)
Dunkelstromkorrektur: Nein (USB2+H04734)
Puls/Lampe aktiviert: Nein (USB2+H04734)
Correct for Detector Non-linearity: Nein (USB2+H04734)
Streulichtkorrektur: Nein (USB2+H04734)
Anzahl Pixel in verarbeitetem Spektrum: 2048
>>>>>Begin Processed Spectral Data<<<<<
418,45	1007,88
418,57	1007,88
418,69	1007,88
418,80	883,59
418,92	822,58
419,04	973,99
419,16	890,37
419,28	928,79
419,40	860,99
419,52	863,25
419,64	917,49
419,75	874,55
419,87	901,67
419,99	838,40
420,11	899,41
420,23	867,77
420,35	962,69
420,47	953,65
420,58	924,27
420,70	978,51
420,82	976,25
420,94	996,58
421,06	1075,68
421,18	1016,92
421,29	1014,66
421,41	1100,54
421,53	1154,77
421,65	1179,63
421,77	1175,11
421,89	1107,32
422,00	1175,11
422,12	1107,32
422,24	1161,55
422,36	1118,61
422,48	1161,55
422,59	1150,25
422,71	1172,85
422,83	1288,10
422,95	1204,49
423,07	1188,67
423,18	1254,20
423,30	1256,46
423,42	1179,63
423,54	1177,37
423,66	1125,39
423,77	1166,07
423,89	1141,21
424,01	1120,87
424,13	1132,17
424,25	1168,33
424,36	1152,51
424,48	1177,37
424,60	1181,89
424,72	1215,79
424,84	1166,07
424,95	1181,89
425,07	1220,31
425,19	1138,95
425,31	1170,59
425,42	1172,85
425,54	1125,39
425,66	1145,73
425,78	1161,55
425,89	1157,03
426,01	1138,95
426,13	1170,59
426,25	1199,97
426,36	1197,71
426,48	1204,49
426,60	1166,07
426,72	1107,32
426,83	1159,29
426,95	1123,13
427,07	1157,03
427,19	1285,84
427,30	1242,91
427,42	1170,59
427,54	1206,75
427,66	1168,33
427,77	1211,27
427,89	1179,63
428,01	1179,63
428,12	1227,09
428,24	1129,91
428,36	1168,33
428,48	1186,41
428,59	1138,95
428,71	1157,03
428,83	1159,29
428,94	1172,85
429,06	1213,53
429,18	1231,61
429,30	1258,72
429,41	1233,87
429,53	1211,27
429,65	1215,79
429,76	1184,15
429,88	1159,29
430,00	1220,31
430,11	1215,79
430,23	1177,37
430,35	1254,20
430,47	1292,62
430,58	1163,81
430,70	1213,53
430,82	1281,32
430,93	1301,66
431,05	1258,72
431,17	1317,48
431,28	1292,62
431,40	1247,42
431,52	1371,72
431,63	1344,60
431,75	1349,12
431,87	1333,30
431,98	1385,27
432,10	1360,42
432,22	1414,65
432,33	1532,16
432,45	1434,99
432,56	1489,23
432,68	1631,60
432,80	1606,74
432,91	1780,74
433,03	1812,38
433,15	2049,66
433,26	2221,41
433,38	2488,07
433,50	2770,55
433,61	2980,71
433,73	3109,52
433,84	3297,09
433,96	3529,85
434,08	3932,10
434,19	4700,44
434,31	5584,03
434,43	6661,97
434,54	8496,95
434,66	10614,41
434,77	14060,65
434,89	19007,41
435,01	26977,82
435,12	36762,88
435,24	49892,47
435,35	57191,72
435,47	61220,99
435,59	60486,55
435,70	57401,88
435,82	50690,19
435,93	35811,49
436,05	19900,04
436,17	9461,90
436,28	4361,47
436,40	2743,43
436,51	2155,88
436,63	1997,69
436,74	1787,52
436,86	1789,78
436,98	1697,13
437,09	1581,88
437,21	1622,56
437,32	1482,45
437,44	1541,20
437,55	1496,01
437,67	1647,41
437,79	1466,63
437,90	1371,72
438,02	1294,88
438,13	1918,59
438,25	1342,34
438,36	1254,20
438,48	1272,28
438,59	1279,06
438,71	1340,08
438,83	1240,65
438,94	1218,05
439,06	1209,01
439,17	1270,02
439,29	1179,63
439,40	1181,89
439,52	1256,46
439,63	1231,61
439,75	1179,63
439,86	1224,83
439,98	1317,48
440,09	1263,24
440,21	1242,91
440,32	1179,63
440,44	1102,80
440,55	1229,35
440,67	1188,67
440,78	1315,22
440,90	1172,85
441,01	1161,55
441,13	1172,85
441,24	1265,50
441,36	1229,35
441,47	1193,19
441,59	1211,27
441,70	1166,07
441,82	1197,71
441,93	1138,95
442,05	1186,41
442,16	1184,15
442,28	1249,68
442,39	1260,98
442,51	1188,67
442,62	1159,29
442,74	1236,13
442,85	1195,45
442,97	1215,79
443,08	1197,71
443,20	1172,85
443,31	1240,65
443,43	1233,87
443,54	1170,59
443,66	1150,25
443,77	1224,83
443,88	1159,29
444,00	1152,51
444,11	1236,13
444,23	1193,19
444,34	1197,71
444,46	1152,51
444,57	1175,11
444,69	1197,71
444,80	1213,53
444,91	1220,31
445,03	1147,99
445,14	1199,97
445,26	1190,93
445,37	1175,11
445,49	1227,09
445,60	1231,61
445,71	1175,11
445,83	1168,33
445,94	1175,11
446,06	1143,47
446,17	1170,59
446,29	1150,25
446,40	1195,45
446,51	1188,67
446,63	1177,37
446,74	1186,41
446,86	1132,17
446,97	1258,72
447,08	1157,03
447,20	1238,39
447,31	1202,23
447,43	1161,55
447,54	1206,75
447,65	1247,42
447,77	1136,69
447,88	1227,09
448,00	1168,33
448,11	1152,51
448,22	1143,47
448,34	1193,19
448,45	1188,67
448,56	1138,95
448,68	1224,83
448,79	1240,65
448,90	1209,01
449,02	1172,85
449,13	1181,89
449,25	1193,19
449,36	1127,65
449,47	1190,93
449,59	1236,13
449,70	1123,13
449,81	1215,79
449,93	1147,99
450,04	1170,59
450,15	1161,55
450,27	1175,11
450,38	1132,17
450,49	1163,81
450,61	1242,91
450,72	1134,43
450,83	1218,05
450,95	1256,46
451,06	1199,97
451,17	1179,63
451,29	1215,79
451,40	1105,06
451,51	1147,99
451,63	1163,81
451,74	1118,61
451,85	1168,33
451,97	1301,66
452,08	1141,21
452,19	1186,41
452,31	1231,61
452,42	1184,15
452,53	1163,81
452,65	1206,75
452,76	1177,37
452,87	1163,81
452,98	1147,99
453,10	1125,39
453,21	1197,71
453,32	1143,47
453,44	1215,79
453,55	1195,45
453,66	1245,16
453,77	1254,20
453,89	1206,75
454,00	1206,75
454,11	1157,03
454,23	1197,71
454,34	1211,27
454,45	1147,99
454,56	1172,85
454,68	1272,28
454,79	1202,23
454,90	1152,51
455,01	1170,59
455,13	1202,23
455,24	1218,05
455,35	1166,07
455,46	1209,01
455,58	1161,55
455,69	1270,02
455,80	1170,59
455,91	1172,85
456,03	1215,79
456,14	1157,03
456,25	1127,65
456,36	1177,37
456,48	1195,45
456,59	1147,99
456,70	1143,47
456,81	1177,37
456,92	1263,24
457,04	1159,29
457,15	1272,28
457,26	1206,75
457,37	1175,11
457,49	1206,75
457,60	1093,76
457,71	1161,55
457,82	1195,45
457,93	1181,89
458,05	1251,94
458,16	1236,13
458,27	1154,77
458,38	1168,33
458,49	1215,79
458,61	1163,81
458,72	1242,91
458,83	1260,98
458,94	1161,55
459,05	1193,19
459,17	1333,30
459,28	1186,41
459,39	1231,61
459,50	1161,55
459,61	1195,45
459,72	1190,93
459,84	1147,99
459,95	1109,58
460,06	1301,66
460,17	1163,81
460,28	1127,65
460,39	1181,89
460,51	1233,87
460,62	1184,15
460,73	1190,93
460,84	1168,33
460,95	1222,57
461,06	1251,94
461,18	1218,05
461,29	1240,65
461,40	1195,45
461,51	1213,53
461,62	1204,49
461,73	1159,29
461,84	1197,71
461,96	1249,68
462,07	1161,55
462,18	1152,51
462,29	1181,89
462,40	1236,13
462,51	1209,01
462,62	1292,62
462,73	1206,75
462,85	1206,75
462,96	1202,23
463,07	1213,53
463,18	1272,28
463,29	1186,41
463,40	1138,95
463,51	1159,29
463,62	1166,07
463,73	1242,91
463,85	1157,03
463,96	1247,42
464,07	1188,67
464,18	1206,75
464,29	1172,85
464,40	1272,28
464,51	1197,71
464,62	1127,65
464,73	1209,01
464,84	1227,09
464,95	1166,07
465,06	1238,39
465,18	1141,21
465,29	1227,09
465,40	1147,99
465,51	1179,63
465,62	1161,55
465,73	1211,27
465,84	1224,83
465,95	1199,97
466,06	1152,51
466,17	1136,69
466,28	1227,09
466,39	1206,75
466,50	1145,73
466,61	1161,55
466,72	1227,09
466,83	1209,01
466,95	1129,91
467,06	1152,51
467,17	1199,97
467,28	1229,35
467,39	1168,33
467,50	1206,75
467,61	1175,11
467,72	1204,49
467,83	1184,15
467,94	1240,65
468,05	1168,33
468,16	1172,85
468,27	1206,75
468,38	1211,27
468,49	1301,66
468,60	1240,65
468,71	1270,02
468,82	1170,59
468,93	1215,79
469,04	1209,01
469,15	1222,57
469,26	1209,01
469,37	1220,31
469,48	1215,79
469,59	1245,16
469,70	1145,73
469,81	1274,54
469,92	1161,55
470,03	1240,65
470,14	1193,19
470,25	1166,07
470,36	1186,41
470,47	1199,97
470,58	1141,21
470,69	1238,39
470,80	1215,79
470,91	1193,19
471,02	1199,97
471,13	1202,23
471,24	1242,91
471,35	1193,19
471,46	1238,39
471,56	1197,71
471,67	1299,40
471,78	1294,88
471,89	1150,25
472,00	1166,07
472,11	1215,79
472,22	1190,93
472,33	1177,37
472,44	1233,87
472,55	1204,49
472,66	1227,09
472,77	1190,93
472,88	1279,06
472,99	1312,96
473,10	1145,73
473,21	1231,61
473,32	1211,27
473,42	1220,31
473,53	1229,35
473,64	1233,87
473,75	1256,46
473,86	1258,72
473,97	1242,91
474,08	1242,91
474,19	1299,40
474,30	1319,74
474,41	1294,88
474,52	1206,75
474,62	1249,68
474,73	1242,91
474,84	1301,66
474,95	1265,50
475,06	1276,80
475,17	1260,98
475,28	1195,45
475,39	1251,94
475,50	1270,02
475,60	1202,23
475,71	1195,45
475,82	1222,57
475,93	1211,27
476,04	1258,72
476,15	1150,25
476,26	1168,33
476,37	1199,97
476,47	1319,74
476,58	1245,16
476,69	1211,27
476,80	1224,83
476,91	1274,54
477,02	1199,97
477,13	1276,80
477,23	1202,23
477,34	1229,35
477,45	1240,65
477,56	1245,16
477,67	1206,75
477,78	1229,35
477,89	1206,75
477,99	1281,32
478,10	1245,16
478,21	1299,40
478,32	1369,46
478,43	1218,05
478,54	1317,48
478,64	1245,16
478,75	1224,83
478,86	1209,01
478,97	1175,11
479,08	1220,31
479,18	1197,71
479,29	1220,31
479,40	1265,50
479,51	1206,75
479,62	1274,54
479,72	1202,23
479,83	1276,80
479,94	1270,02
480,05	1283,58
480,16	1206,75
480,26	1281,32
480,37	1256,46
480,48	1312,96
480,59	1186,41
480,70	1285,84
480,80	1238,39
480,91	1220,31
481,02	1247,42
481,13	1265,50
481,24	1260,98
481,34	1245,16
481,45	1371,72
481,56	1256,46
481,67	1294,88
481,77	1306,18
481,88	1310,70
481,99	1229,35
482,10	1367,20
482,20	1299,40
482,31	1265,50
482,42	1353,64
482,53	1303,92
482,63	1364,94
482,74	1398,83
482,85	1306,18
482,96	1233,87
483,06	1224,83
483,17	1306,18
483,28	1312,96
483,39	1355,90
483,49	1337,82
483,60	1385,27
483,71	1263,24
483,81	1335,56
483,92	1315,22
484,03	1394,31
484,14	1394,31
484,24	1355,90
484,35	1380,75
484,46	1376,24
484,57	1281,32
484,67	1337,82
484,78	1344,60
484,89	1367,20
484,99	1308,44
485,10	1333,30
485,21	1371,72
485,31	1342,34
485,42	1362,68
485,53	1333,30
485,63	1403,35
485,74	1486,97
485,85	1468,89
485,96	1663,23
486,06	1398,83
486,17	1353,64
486,28	1416,91
486,38	1285,84
486,49	1270,02
486,60	1337,82
486,70	1367,20
486,81	1340,08
486,92	1383,01
487,02	1414,65
487,13	1414,65
487,24	1335,56
487,34	1380,75
487,45	1385,27
487,56	1389,79
487,66	1475,67
487,77	1428,21
487,87	1421,43
487,98	1322,00
488,09	1410,13
488,19	1392,05
488,30	1496,01
488,41	1421,43
488,51	1396,57
488,62	1462,11
488,73	1439,51
488,83	1398,83
488,94	1432,73
489,04	1464,37
489,15	1376,24
489,26	1446,29
489,36	1394,31
489,47	1419,17
489,58	1403,35
489,68	1441,77
489,79	1351,38
489,89	1344,60
490,00	1412,39
490,11	1419,17
490,21	1444,03
490,32	1355,90
490,42	1448,55
490,53	1529,90
490,64	1631,60
490,74	1780,74
490,85	2124,24
490,95	2458,69
491,06	3028,17
491,16	3857,53
491,27	4576,15
491,38	4840,55
491,48	4759,20
491,59	4621,35
491,69	3968,26
491,80	3290,31
491,90	2533,27
492,01	1749,11
492,12	1505,05
492,22	1475,67
492,33	1432,73
492,43	1362,68
492,54	1385,27
492,64	1380,75
492,75	1351,38
492,86	1389,79
492,96	1317,48
493,07	1344,60
493,17	1340,08
493,28	1364,94
493,38	1312,96
493,49	1312,96
493,59	1367,20
493,70	1337,82
493,80	1371,72
493,91	1353,64
494,01	1294,88
494,12	1392,05
494,22	1380,75
494,33	1505,05
494,43	1412,39
494,54	1493,75
494,64	1371,72
494,75	1421,43
494,86	1453,07
494,96	1421,43
495,07	1459,85
495,17	1543,46
495,28	1609,00
495,38	1685,83
495,49	1812,38
495,59	1966,05
495,69	2051,92
495,80	2160,40
495,90	2162,66
496,01	2063,22
496,11	2164,91
496,22	1909,55
496,32	1746,85
496,43	1627,08
496,53	1525,38
496,64	1434,99
496,74	1505,05
496,85	1480,19
496,95	1455,33
497,06	1383,01
497,16	1453,07
497,27	1396,57
497,37	1453,07
497,48	1358,16
497,58	1326,52
497,68	1355,90
497,79	1371,72
497,89	1416,91
498,00	1412,39
498,10	1351,38
498,21	1396,57
498,31	1371,72
498,42	1378,49
498,52	1466,63
498,62	1378,49
498,73	1392,05
498,83	1405,61
498,94	1358,16
499,04	1380,75
499,15	1288,10
499,25	1410,13
499,35	1421,43
499,46	1394,31
499,56	1392,05
499,67	1328,78
499,77	1387,53
499,87	1403,35
499,98	1294,88
500,08	1256,46
500,19	1306,18
500,29	1364,94
500,39	1367,20
500,50	1333,30
500,60	1346,86
500,71	1351,38
500,81	1383,01
500,91	1265,50
501,02	1319,74
501,12	1376,24
501,22	1281,32
501,33	1360,42
501,43	1383,01
501,54	1367,20
501,64	1297,14
501,74	1333,30
501,85	1432,73
501,95	1312,96
502,05	1430,47
502,16	1401,09
502,26	1529,90
502,37	1439,51
502,47	1444,03
502,57	1319,74
502,68	1353,64
502,78	1376,24
502,88	1405,61
502,99	1369,46
503,09	1360,42
503,19	1299,40
503,30	1328,78
503,40	1401,09
503,50	1292,62
503,61	1340,08
503,71	1362,68
503,81	1383,01
503,92	1383,01
504,02	1410,13
504,12	1502,79
504,23	1523,12
504,33	1444,03
504,43	1500,53
504,54	1489,23
504,64	1471,15
504,74	1547,98
504,84	1403,35
504,95	1364,94
505,05	1267,76
505,15	1344,60
505,26	1362,68
505,36	1344,60
505,46	1378,49
505,56	1315,22
505,67	1423,69
505,77	1337,82
505,87	1281,32
505,98	1274,54
506,08	1364,94
506,18	1344,60
506,28	1324,26
506,39	1281,32
506,49	1308,44
506,59	1362,68
506,70	1315,22
506,80	1383,01
506,90	1396,57
507,00	1301,66
507,11	1360,42
507,21	1385,27
507,31	1331,04
507,41	1326,52
507,52	1353,64
507,62	1378,49
507,72	1403,35
507,82	1385,27
507,93	1303,92
508,03	1398,83
508,13	1328,78
508,23	1385,27
508,34	1364,94
508,44	1312,96
508,54	1331,04
508,64	1335,56
508,74	1292,62
508,85	1358,16
508,95	1337,82
509,05	1355,90
509,15	1412,39
509,26	1319,74
509,36	1396,57
509,46	1389,79
509,56	1421,43
509,66	1326,52
509,77	1383,01
509,87	1337,82
509,97	1412,39
510,07	1380,75
510,17	1326,52
510,28	1502,79
510,38	1412,39
510,48	1364,94
510,58	1428,21
510,68	1432,73
510,78	1419,17
510,89	1358,16
510,99	1453,07
511,09	1392,05
511,19	1410,13
511,29	1416,91
511,39	1416,91
511,50	1416,91
511,60	1401,09
511,70	1367,20
511,80	1486,97
511,90	1468,89
512,00	1457,59
512,11	1491,49
512,21	1450,81
512,31	1421,43
512,41	1468,89
512,51	1459,85
512,61	1421,43
512,71	1367,20
512,82	1407,87
512,92	1371,72
513,02	1473,41
513,12	1464,37
513,22	1396,57
513,32	1380,75
513,42	1471,15
513,53	1410,13
513,63	1380,75
513,73	1439,51
513,83	1360,42
513,93	1333,30
514,03	1444,03
514,13	1430,47
514,23	1358,16
514,33	1358,16
514,44	1387,53
514,54	1398,83
514,64	1425,95
514,74	1394,31
514,84	1373,98
514,94	1405,61
515,04	1344,60
515,14	1353,64
515,24	1362,68
515,34	1448,55
515,44	1283,58
515,55	1265,50
515,65	1362,68
515,75	1342,34
515,85	1358,16
515,95	1407,87
516,05	1392,05
516,15	1416,91
516,25	1392,05
516,35	1385,27
516,45	1362,68
516,55	1414,65
516,65	1322,00
516,75	1468,89
516,85	1369,46
516,95	1453,07
517,05	1364,94
517,16	1414,65
517,26	1432,73
517,36	1389,79
517,46	1376,24
517,56	1344,60
517,66	1371,72
517,76	1355,90
517,86	1369,46
517,96	1416,91
518,06	1389,79
518,16	1389,79
518,26	1437,25
518,36	1387,53
518,46	1373,98
518,56	1355,90
518,66	1340,08
518,76	1367,20
518,86	1405,61
518,96	1342,34
519,06	1437,25
519,16	1407,87
519,26	1419,17
519,36	1410,13
519,46	1376,24
519,56	1441,77
519,66	1484,71
519,76	1405,61
519,86	1401,09
519,96	1380,75
520,06	1367,20
520,16	1439,51
520,26	1344,60
520,36	1328,78
520,46	1416,91
520,56	1376,24
520,66	1462,11
520,76	1437,25
520,86	1373,98
520,96	1342,34
521,06	1351,38
521,16	1376,24
521,26	1369,46
521,35	1405,61
521,45	1364,94
521,55	1340,08
521,65	1430,47
521,75	1432,73
521,85	1392,05
521,95	1396,57
522,05	1358,16
522,15	1401,09
522,25	1430,47
522,35	1430,47
522,45	1432,73
522,55	1446,29
522,65	1389,79
522,75	1444,03
522,85	1387,53
522,94	1378,49
523,04	1468,89
523,14	1421,43
523,24	1342,34
523,34	1437,25
523,44	1405,61
523,54	1432,73
523,64	1428,21
523,74	1450,81
523,84	1439,51
523,94	1387,53
524,03	1432,73
524,13	1434,99
524,23	1416,91
524,33	1459,85
524,43	1439,51
524,53	1475,67
524,63	1392,05
524,73	1489,23
524,83	1394,31
524,92	1416,91
525,02	1466,63
525,12	1484,71
525,22	1480,19
525,32	1453,07
525,42	1428,21
525,52	1448,55
525,61	1486,97
525,71	1437,25
525,81	1378,49
525,91	1439,51
526,01	1416,91
526,11	1412,39
526,21	1398,83
526,30	1430,47
526,40	1380,75
526,50	1421,43
526,60	1396,57
526,70	1464,37
526,80	1466,63
526,89	1446,29
526,99	1392,05
527,09	1446,29
527,19	1437,25
527,29	1468,89
527,39	1471,15
527,48	1462,11
527,58	1496,01
527,68	1468,89
527,78	1545,72
527,88	1511,82
527,97	1428,21
528,07	1428,21
528,17	1450,81
528,27	1468,89
528,37	1500,53
528,46	1500,53
528,56	1554,76
528,66	1511,82
528,76	1500,53
528,86	1500,53
528,95	1477,93
529,05	1572,84
529,15	1557,02
529,25	1462,11
529,35	1502,79
529,44	1529,90
529,54	1561,54
529,64	1468,89
529,74	1453,07
529,83	1473,41
529,93	1507,30
530,03	1416,91
530,13	1579,62
530,22	1464,37
530,32	1518,60
530,42	1532,16
530,52	1477,93
530,61	1507,30
530,71	1520,86
530,81	1471,15
530,91	1477,93
531,00	1529,90
531,10	1518,60
531,20	1735,55
531,30	1572,84
531,39	1579,62
531,49	1586,40
531,59	1717,47
531,69	1638,38
531,78	1656,45
531,88	1572,84
531,98	1563,80
532,07	1624,82
532,17	1579,62
532,27	1581,88
532,37	1527,64
532,46	1584,14
532,56	1586,40
532,66	1590,92
532,75	1629,34
532,85	1586,40
532,95	1604,48
533,04	1584,14
533,14	1611,26
533,24	1611,26
533,34	1649,67
533,43	1590,92
533,53	1584,14
533,63	1604,48
533,72	1611,26
533,82	1518,60
533,92	1620,30
534,01	1715,21
534,11	1703,91
534,21	1679,05
534,30	1670,01
534,40	1658,71
534,50	1618,04
534,59	1654,19
534,69	1712,95
534,79	1769,44
534,88	1744,59
534,98	1873,40
535,08	1866,62
535,17	1898,26
535,27	1988,65
535,36	1929,89
535,46	2090,34
535,56	2047,40
535,65	2024,81
535,75	1979,61
535,85	1997,69
535,94	2029,33
536,04	2020,29
536,14	2070,00
536,23	2137,80
536,33	2058,70
536,42	2223,67
536,52	2219,15
536,62	2234,97
536,71	2216,89
536,81	2178,47
536,90	2094,86
537,00	1977,35
537,10	2024,81
537,19	1934,41
537,29	1905,03
537,38	1886,96
537,48	1911,81
537,58	1911,81
537,67	1844,02
537,77	1850,80
537,86	1866,62
537,96	1848,54
538,06	1850,80
538,15	1938,93
538,25	1970,57
538,34	1896,00
538,44	2006,73
538,53	1950,23
538,63	1918,59
538,73	2002,21
538,82	1963,79
538,92	1957,01
539,01	1907,29
539,11	1825,94
539,20	2027,07
539,30	1988,65
539,39	2056,44
539,49	2036,10
539,59	1988,65
539,68	2153,62
539,78	2185,25
539,87	2214,63
539,97	2167,17
540,06	2115,20
540,16	2259,83
540,25	2302,76
540,35	2372,82
540,44	2393,16
540,54	2472,25
540,63	2551,35
540,73	2499,37
540,82	2531,01
540,92	2503,89
541,01	2634,96
541,11	2657,56
541,20	2808,97
541,30	2815,75
541,39	2822,52
541,49	2897,10
541,58	2969,41
541,68	3123,08
541,77	3163,76
541,87	3206,70
541,96	3389,74
542,06	3382,96
542,15	3299,35
542,25	3453,02
542,34	3604,42
542,44	3403,30
542,53	3516,29
542,63	3584,09
542,72	3654,14
542,82	3708,38
542,91	3828,15
543,01	3773,91
543,10	4058,65
543,20	4020,23
543,29	4130,96
543,38	4347,91
543,48	4404,40
543,57	4582,93
543,67	4829,25
543,76	4973,88
543,86	5251,84
543,95	5541,10
544,05	5769,34
544,14	6002,10
544,23	6158,03
544,33	6408,87
544,42	6517,34
544,52	6960,27
544,61	7249,53
544,71	7931,99
544,80	8806,55
544,89	10155,67
544,99	12862,94
545,08	18975,77
545,18	31881,65
545,27	54204,22
545,36	65535,00
545,46	65535,00
545,55	65535,00
545,65	65535,00
545,74	65535,00
545,84	65535,00
545,93	65535,00
546,02	65535,00
546,12	65535,00
546,21	65535,00
546,30	65535,00
546,40	65535,00
546,49	62176,90
546,59	32907,61
546,68	21316,95
546,77	15210,90
546,87	12160,13
546,96	10065,27
547,05	8998,63
547,15	7889,06
547,24	7107,16
547,34	6474,41
547,43	6063,12
547,52	5810,02
547,62	5315,11
547,71	4926,42
547,80	4903,83
547,90	4512,88
547,99	4591,97
548,08	4243,96
548,18	4133,22
548,27	4185,20
548,36	3816,85
548,46	3803,29
548,55	3597,65
548,64	3351,32
548,74	3367,14
548,83	3288,05
548,92	3141,16
549,02	3080,14
549,11	3041,73
549,20	2933,26
549,30	2824,78
549,39	2756,99
549,48	2736,65
549,58	2528,75
549,67	2592,02
549,76	2483,55
549,85	2427,05
549,95	2553,61
550,04	2463,21
550,13	2370,56
550,23	2377,34
550,32	2302,76
550,41	2357,00
550,50	2381,86
550,60	2307,28
550,69	2325,36
550,78	2189,77
550,88	2246,27
550,97	2176,21
551,06	2194,29
551,15	2266,61
551,25	2221,41
551,34	2171,69
551,43	2124,24
551,52	2244,01
551,62	2146,84
551,71	2255,31
551,80	2248,53
551,89	2223,67
551,99	2334,40
552,08	2262,09
552,17	2305,02
552,26	2223,67
552,36	2221,41
552,45	2214,63
552,54	2108,42
552,63	2110,68
552,73	2250,79
552,82	2187,51
552,91	2223,67
553,00	2221,41
553,10	2051,92
553,19	2158,14
553,28	2128,76
553,37	2054,18
553,46	2058,70
553,56	2031,58
553,65	2038,36
553,74	2024,81
553,83	1970,57
553,92	1990,91
554,02	1959,27
554,11	1986,39
554,20	1954,75
554,29	2106,16
554,38	1929,89
554,48	1957,01
554,57	1914,07
554,66	1918,59
554,75	1927,63
554,84	1810,12
554,94	1864,36
555,03	1871,14
555,12	1733,29
555,21	1866,62
555,30	1792,04
555,39	1792,04
555,49	1762,67
555,58	1735,55
555,67	1773,96
555,76	1846,28
555,85	1681,31
555,94	1699,39
556,03	1681,31
556,13	1694,87
556,22	1640,63
556,31	1717,47
556,40	1679,05
556,49	1692,61
556,58	1760,41
556,67	1699,39
556,77	1703,91
556,86	1785,26
556,95	1683,57
557,04	1710,69
557,13	1633,86
557,22	1690,35
557,31	1486,97
557,40	1649,67
557,50	1685,83
557,59	1631,60
557,68	1581,88
557,77	1703,91
557,86	1706,17
557,95	1638,38
558,04	1647,41
558,13	1584,14
558,22	1611,26
558,31	1547,98
558,41	1532,16
558,50	1697,13
558,59	1676,79
558,68	1640,63
558,77	1656,45
558,86	1604,48
558,95	1611,26
559,04	1670,01
559,13	1667,75
559,22	1701,65
559,31	1627,08
559,40	1559,28
559,49	1595,44
559,59	1602,22
559,68	1606,74
559,77	1588,66
559,86	1647,41
559,95	1597,70
560,04	1609,00
560,13	1611,26
560,22	1749,11
560,31	1545,72
560,40	1561,54
560,49	1541,20
560,58	1566,06
560,67	1536,68
560,76	1627,08
560,85	1507,30
560,94	1595,44
561,03	1559,28
561,12	1672,27
561,21	1681,31
561,30	1561,54
561,39	1514,08
561,48	1486,97
561,57	1590,92
561,66	1597,70
561,75	1547,98
561,84	1660,97
561,93	1523,12
562,02	1572,84
562,11	1523,12
562,20	1532,16
562,29	1552,50
562,38	1547,98
562,47	1584,14
562,56	1579,62
562,65	1559,28
562,74	1568,32
562,83	1683,57
562,92	1554,76
563,01	1550,24
563,10	1500,53
563,19	1527,64
563,28	1667,75
563,37	1545,72
563,46	1514,08
563,55	1538,94
563,64	1658,71
563,73	1520,86
563,82	1525,38
563,91	1570,58
564,00	1552,50
564,09	1529,90
564,18	1579,62
564,27	1518,60
564,35	1541,20
564,44	1561,54
564,53	1597,70
564,62	1563,80
564,71	1577,36
564,80	1620,30
564,89	1620,30
564,98	1566,06
565,07	1599,96
565,16	1457,59
565,25	1699,39
565,34	1570,58
565,43	1561,54
565,51	1518,60
565,60	1624,82
565,69	1471,15
565,78	1588,66
565,87	1455,33
565,96	1572,84
566,05	1557,02
566,14	1595,44
566,23	1581,88
566,32	1636,12
566,40	1692,61
566,49	1627,08
566,58	1604,48
566,67	1597,70
566,76	1597,70
566,85	1611,26
566,94	1753,63
567,03	1771,70
567,11	1787,52
567,20	1877,92
567,29	1975,09
567,38	1938,93
567,47	1907,29
567,56	1859,84
567,65	1866,62
567,73	1805,60
567,82	1742,33
567,91	1690,35
568,00	1618,04
568,09	1649,67
568,18	1516,34
568,27	1590,92
568,35	1577,36
568,44	1656,45
568,53	1541,20
568,62	1606,74
568,71	1577,36
568,80	1550,24
568,88	1604,48
568,97	1665,49
569,06	1618,04
569,15	1712,95
569,24	1703,91
569,32	1651,93
569,41	1749,11
569,50	1708,43
569,59	1638,38
569,68	1629,34
569,76	1651,93
569,85	1656,45
569,94	1685,83
570,03	1627,08
570,12	1624,82
570,20	1572,84
570,29	1706,17
570,38	1629,34
570,47	1715,21
570,56	1568,32
570,64	1645,15
570,73	1593,18
570,82	1681,31
570,91	1721,99
570,99	1588,66
571,08	1649,67
571,17	1622,56
571,26	1692,61
571,34	1670,01
571,43	1789,78
571,52	1841,76
571,61	1857,58
571,69	1760,41
571,78	1801,08
571,87	1735,55
571,96	1787,52
572,04	1857,58
572,13	1850,80
572,22	1801,08
572,31	1834,98
572,39	1801,08
572,48	1864,36
572,57	1968,31
572,66	1920,85
572,74	1943,45
572,83	2112,94
572,92	2065,48
573,00	2106,16
573,09	2106,16
573,18	2101,64
573,27	2155,88
573,35	2223,67
573,44	2212,37
573,53	2241,75
573,61	2189,77
573,70	2311,80
573,79	2316,32
573,87	2438,35
573,96	2447,39
574,05	2445,13
574,14	2451,91
574,22	2585,24
574,31	2605,58
574,40	2720,83
574,48	2912,92
574,57	3050,77
574,66	3059,81
574,74	3247,37
574,83	3419,12
574,92	3523,07
575,00	3791,99
575,09	3950,18
575,18	4078,99
575,26	4449,60
575,35	4447,34
575,43	4788,57
575,52	5301,56
575,61	5656,35
575,69	6354,64
575,78	7287,94
575,87	8761,35
575,95	11251,68
576,04	16266,24
576,13	27226,40
576,21	45402,20
576,30	62145,26
576,38	65535,00
576,47	65535,00
576,56	65535,00
576,64	65535,00
576,73	65535,00
576,82	65535,00
576,90	65535,00
576,99	65535,00
577,07	65535,00
577,16	65535,00
577,25	48077,83
577,33	27592,49
577,42	17170,17
577,50	12017,76
577,59	9669,80
577,68	8483,39
577,76	8157,98
577,85	8022,39
577,93	8614,46
578,02	10250,58
578,10	13450,49
578,19	20661,60
578,28	34616,04
578,36	55248,26
578,45	65535,00
578,53	65535,00
578,62	65535,00
578,70	65535,00
578,79	65535,00
578,88	65535,00
578,96	65535,00
579,05	65535,00
579,13	65535,00
579,22	65535,00
579,30	60606,32
579,39	36157,24
579,47	21249,16
579,56	13760,09
579,64	9859,63
579,73	7694,71
579,82	6770,44
579,90	6187,41
579,99	5947,87
580,07	5807,76
580,16	5717,36
580,24	5389,69
580,33	5059,75
580,41	4768,24
580,50	4510,62
580,58	4119,67
580,67	3730,98
580,75	3563,75
580,84	3267,71
580,92	3005,57
581,01	3021,39
581,09	2856,42
581,18	2842,86
581,26	2650,78
581,35	2614,62
581,43	2601,06
581,52	2501,63
581,60	2490,33
581,69	2427,05
581,77	2438,35
581,86	2300,50
581,94	2361,52
582,02	2302,76
582,11	2336,66
582,19	2277,91
582,28	2248,53
582,36	2162,66
582,45	2198,81
582,53	2142,32
582,62	2128,76
582,70	2015,77
582,79	2092,60
582,87	2051,92
582,96	2196,55
583,04	2155,88
583,12	2020,29
583,21	2038,36
583,29	2173,95
583,38	2022,55
583,46	2042,88
583,55	1943,45
583,63	1986,39
583,71	1984,13
583,80	1918,59
583,88	1959,27
583,97	1999,95
584,05	1952,49
584,13	1905,03
584,22	1918,59
584,30	1920,85
584,39	1907,29
584,47	1896,00
584,55	1900,52
584,64	1952,49
584,72	1959,27
584,81	1794,30
584,89	1749,11
584,97	1862,10
585,06	1807,86
585,14	1914,07
585,23	1816,90
585,31	1868,88
585,39	1882,44
585,48	1970,57
585,56	1859,84
585,64	1943,45
585,73	1986,39
585,81	1947,97
585,90	2099,38
585,98	1963,79
586,06	1963,79
586,15	1925,37
586,23	1837,24
586,31	1731,03
586,40	1891,48
586,48	1787,52
586,56	1841,76
586,65	1823,68
586,73	1857,58
586,81	1821,42
586,90	1862,10
586,98	1837,24
587,06	1805,60
587,15	1857,58
587,23	1821,42
587,31	1839,50
587,40	1805,60
587,48	1742,33
587,56	1735,55
587,65	1810,12
587,73	1740,07
587,81	1670,01
587,90	1710,69
587,98	1647,41
588,06	1670,01
588,14	1681,31
588,23	1708,43
588,31	1749,11
588,39	1683,57
588,48	1810,12
588,56	1728,77
588,64	1844,02
588,72	1801,08
588,81	1816,90
588,89	1771,70
588,97	1753,63
589,06	1796,56
589,14	1728,77
589,22	1708,43
589,30	1640,63
589,39	1579,62
589,47	1633,86
589,55	1638,38
589,63	1609,00
589,72	1611,26
589,80	1514,08
589,88	1518,60
589,96	1473,41
590,05	1554,76
590,13	1473,41
590,21	1550,24
590,29	1577,36
590,38	1559,28
590,46	1536,68
590,54	1477,93
590,62	1448,55
590,71	1554,76
590,79	1629,34
590,87	1509,56
590,95	1496,01
591,03	1507,30
591,12	1572,84
591,20	1493,75
591,28	1547,98
591,36	1543,46
591,44	1486,97
591,53	1511,82
591,61	1516,34
591,69	1534,42
591,77	1550,24
591,85	1523,12
591,94	1541,20
592,02	1523,12
592,10	1516,34
592,18	1590,92
592,26	1493,75
592,34	1444,03
592,43	1545,72
592,51	1486,97
592,59	1516,34
592,67	1554,76
592,75	1584,14
592,84	1516,34
592,92	1595,44
593,00	1554,76
593,08	1561,54
593,16	1416,91
593,24	1538,94
593,32	1538,94
593,41	1532,16
593,49	1416,91
593,57	1536,68
593,65	1480,19
593,73	1489,23
593,81	1525,38
593,89	1520,86
593,98	1441,77
594,06	1416,91
594,14	1468,89
594,22	1477,93
594,30	1432,73
594,38	1468,89
594,46	1538,94
594,54	1407,87
594,62	1392,05
594,71	1466,63
594,79	1430,47
594,87	1331,04
594,95	1407,87
595,03	1394,31
595,11	1414,65
595,19	1428,21
595,27	1396,57
595,35	1398,83
595,43	1383,01
595,52	1425,95
595,60	1362,68
595,68	1482,45
595,76	1416,91
595,84	1448,55
595,92	1459,85
596,00	1471,15
596,08	1423,69
596,16	1493,75
596,24	1414,65
596,32	1376,24
596,40	1471,15
596,48	1358,16
596,56	1358,16
596,64	1358,16
596,73	1446,29
596,81	1398,83
596,89	1362,68
596,97	1288,10
597,05	1446,29
597,13	1337,82
597,21	1383,01
597,29	1412,39
597,37	1446,29
597,45	1369,46
597,53	1423,69
597,61	1358,16
597,69	1434,99
597,77	1380,75
597,85	1367,20
597,93	1333,30
598,01	1389,79
598,09	1439,51
598,17	1349,12
598,25	1416,91
598,33	1416,91
598,41	1351,38
598,49	1322,00
598,57	1446,29
598,65	1421,43
598,73	1498,27
598,81	1414,65
598,89	1401,09
598,97	1437,25
599,05	1450,81
599,13	1353,64
599,21	1473,41
599,29	1389,79
599,37	1425,95
599,45	1464,37
599,53	1480,19
599,61	1405,61
599,69	1532,16
599,77	1351,38
599,85	1394,31
599,93	1387,53
600,00	1392,05
600,08	1392,05
600,16	1378,49
600,24	1434,99
600,32	1412,39
600,40	1473,41
600,48	1437,25
600,56	1457,59
600,64	1376,24
600,72	1310,70
600,80	1371,72
600,88	1346,86
600,96	1335,56
601,04	1355,90
601,12	1337,82
601,19	1312,96
601,27	1312,96
601,35	1292,62
601,43	1326,52
601,51	1319,74
601,59	1297,14
601,67	1267,76
601,75	1355,90
601,83	1349,12
601,91	1351,38
601,98	1322,00
602,06	1360,42
602,14	1306,18
602,22	1276,80
602,30	1401,09
602,38	1437,25
602,46	1324,26
602,54	1351,38
602,61	1322,00
602,69	1333,30
602,77	1292,62
602,85	1326,52
602,93	1371,72
603,01	1337,82
603,09	1337,82
603,17	1315,22
603,24	1337,82
603,32	1274,54
603,40	1369,46
603,48	1364,94
603,56	1392,05
603,64	1317,48
603,71	1274,54
603,79	1310,70
603,87	1247,42
603,95	1378,49
604,03	1319,74
604,11	1394,31
604,18	1346,86
604,26	1283,58
604,34	1362,68
604,42	1297,14
604,50	1315,22
604,57	1358,16
604,65	1333,30
604,73	1299,40
604,81	1319,74
604,89	1342,34
604,96	1288,10
605,04	1398,83
605,12	1342,34
605,20	1396,57
605,28	1378,49
605,35	1349,12
605,43	1294,88
605,51	1297,14
605,59	1387,53
605,67	1401,09
605,74	1376,24
605,82	1319,74
605,90	1292,62
605,98	1324,26
606,05	1283,58
606,13	1303,92
606,21	1437,25
606,29	1322,00
606,36	1346,86
606,44	1272,28
606,52	1380,75
606,60	1376,24
606,67	1414,65
606,75	1428,21
606,83	1437,25
606,91	1502,79
606,98	1502,79
607,06	1532,16
607,14	1527,64
607,22	1500,53
607,29	1425,95
607,37	1457,59
607,45	1484,71
607,52	1489,23
607,60	1389,79
607,68	1401,09
607,76	1380,75
607,83	1335,56
607,91	1376,24
607,99	1380,75
608,06	1340,08
608,14	1362,68
608,22	1355,90
608,30	1387,53
608,37	1355,90
608,45	1360,42
608,53	1430,47
608,60	1315,22
608,68	1398,83
608,76	1450,81
608,83	1389,79
608,91	1441,77
608,99	1498,27
609,06	1412,39
609,14	1430,47
609,22	1416,91
609,29	1468,89
609,37	1423,69
609,45	1475,67
609,52	1475,67
609,60	1516,34
609,68	1441,77
609,75	1475,67
609,83	1480,19
609,91	1676,79
609,98	1534,42
610,06	1633,86
610,13	1663,23
610,21	1640,63
610,29	1681,31
610,36	1776,22
610,44	1805,60
610,52	1893,74
610,59	1986,39
610,67	2018,03
610,74	2056,44
610,82	2225,93
610,90	2268,87
610,97	2386,38
611,05	2282,43
611,13	2289,21
611,20	2354,74
611,28	2207,85
611,35	2223,67
611,43	2076,78
611,51	2081,30
611,58	2060,96
611,66	2018,03
611,73	1945,71
611,81	2070,00
611,88	1877,92
611,96	2002,21
612,04	1873,40
612,11	1830,46
612,19	1868,88
612,26	1760,41
612,34	1615,78
612,41	1692,61
612,49	1670,01
612,57	1645,15
612,64	1638,38
612,72	1692,61
612,79	1588,66
612,87	1496,01
612,94	1561,54
613,02	1613,52
613,09	1459,85
613,17	1557,02
613,24	1453,07
613,32	1511,82
613,40	1498,27
613,47	1457,59
613,55	1423,69
613,62	1493,75
613,70	1498,27
613,77	1496,01
613,85	1624,82
613,92	1459,85
614,00	1385,27
614,07	1428,21
614,15	1401,09
614,22	1421,43
614,30	1414,65
614,37	1453,07
614,45	1394,31
614,52	1416,91
614,60	1403,35
614,67	1453,07
614,75	1441,77
614,82	1360,42
614,90	1403,35
614,97	1412,39
615,05	1396,57
615,12	1421,43
615,20	1369,46
615,27	1344,60
615,34	1401,09
615,42	1378,49
615,49	1355,90
615,57	1292,62
615,64	1360,42
615,72	1380,75
615,79	1355,90
615,87	1405,61
615,94	1367,20
616,02	1272,28
616,09	1303,92
616,16	1387,53
616,24	1317,48
616,31	1292,62
616,39	1358,16
616,46	1303,92
616,54	1288,10
616,61	1405,61
616,68	1276,80
616,76	1251,94
616,83	1242,91
616,91	1238,39
616,98	1238,39
617,06	1355,90
617,13	1206,75
617,20	1258,72
617,28	1272,28
617,35	1267,76
617,43	1254,20
617,50	1186,41
617,57	1199,97
>>>>>End Processed Spectral Data<<<<<
