SpectraSuite Datei
++++++++++++++++++++++++++++++++++++
Datum: Mon Jan 05 02:24:48 CET 2004
Benutzer: Student
Dark-Spektrum vorhanden: Ja
Referenz-Spektrum vorhanden: Nein
Zahl der probierten Teilspektren: 1
Spektrometer: USB2+H04734
Integrationszeit (usec): 50000 (USB2+H04734)
Spektren Durchschnitt berechnet: 100 (USB2+H04734)
Boxcar Glättung: 0 (USB2+H04734)
Dunkelstromkorrektur: Nein (USB2+H04734)
Puls/Lampe aktiviert: Nein (USB2+H04734)
Correct for Detector Non-linearity: Nein (USB2+H04734)
Streulichtkorrektur: Nein (USB2+H04734)
Anzahl Pixel in verarbeitetem Spektrum: 2048
>>>>>Begin Processed Spectral Data<<<<<
418,45	928,77
418,57	928,77
418,69	928,77
418,80	842,33
418,92	828,07
419,04	833,83
419,16	811,91
419,28	799,71
419,40	796,21
419,52	799,53
419,64	795,73
419,75	791,10
419,87	800,88
419,99	800,97
420,11	817,49
420,23	815,78
420,35	824,36
420,47	836,32
420,58	849,02
420,70	854,21
420,82	863,55
420,94	870,10
421,06	881,33
421,18	898,28
421,29	1111,77
421,41	1656,16
421,53	1682,42
421,65	1699,64
421,77	1696,95
421,89	1710,89
422,00	1698,33
422,12	1691,96
422,24	1687,07
422,36	1696,63
422,48	1698,26
422,59	1709,56
422,71	1743,43
422,83	1747,03
422,95	1757,87
423,07	1763,25
423,18	1773,44
423,30	1777,38
423,42	1758,76
423,54	1776,04
423,66	1788,79
423,77	1786,30
423,89	1789,60
424,01	1799,03
424,13	1789,29
424,25	1797,47
424,36	1793,38
424,48	1795,05
424,60	1776,47
424,72	1780,61
424,84	1786,48
424,95	1790,44
425,07	1788,92
425,19	1810,23
425,31	1812,97
425,42	1805,40
425,54	1793,42
425,66	1791,32
425,78	1788,99
425,89	1809,20
426,01	1804,22
426,13	1811,93
426,25	1828,56
426,36	1818,26
426,48	1810,73
426,60	1783,16
426,72	1767,00
426,83	1766,21
426,95	1757,42
427,07	1765,08
427,19	1791,93
427,30	1803,25
427,42	1803,48
427,54	1830,14
427,66	1823,25
427,77	1832,02
427,89	1832,20
428,01	1841,35
428,12	1817,62
428,24	1817,33
428,36	1824,61
428,48	1823,95
428,59	1806,51
428,71	1818,46
428,83	1801,90
428,94	1804,79
429,06	1792,63
429,18	1800,59
429,30	1777,38
429,41	1761,78
429,53	1733,97
429,65	1718,28
429,76	1710,58
429,88	1686,13
430,00	1691,80
430,11	1694,31
430,23	1698,87
430,35	1712,97
430,47	1717,69
430,58	1711,50
430,70	1758,15
430,82	1772,61
430,93	1830,39
431,05	1855,66
431,17	1914,41
431,28	1956,31
431,40	1978,52
431,52	2001,08
431,63	1991,52
431,75	1984,06
431,87	1983,45
431,98	1943,14
432,10	1921,98
432,22	1923,00
432,33	1932,04
432,45	1943,29
432,56	1962,23
432,68	2000,38
432,80	2010,82
432,91	2022,48
433,03	2027,25
433,15	2011,88
433,26	1972,54
433,38	1952,15
433,50	1932,85
433,61	1911,77
433,73	1913,76
433,84	1905,35
433,96	1926,84
434,08	1956,13
434,19	2000,63
434,31	2039,61
434,43	2075,56
434,54	2111,33
434,66	2160,60
434,77	2224,28
434,89	2311,69
435,01	2463,75
435,12	2603,98
435,24	2856,81
435,35	3061,91
435,47	3259,33
435,59	3248,95
435,70	3146,72
435,82	2977,30
435,93	2725,53
436,05	2457,27
436,17	2257,34
436,28	2152,96
436,40	2110,90
436,51	2107,36
436,63	2102,91
436,74	2069,55
436,86	2079,99
436,98	2080,92
437,09	2059,09
437,21	2057,69
437,32	2044,78
437,44	2050,54
437,55	2034,27
437,67	2076,92
437,79	2025,94
437,90	1998,82
438,02	1979,04
438,13	2042,36
438,25	1982,75
438,36	2010,77
438,48	2012,11
438,59	2044,74
438,71	2046,66
438,83	2072,94
438,94	2080,71
439,06	2071,13
439,17	2099,65
439,29	2100,35
439,40	2113,84
439,52	2112,87
439,63	2113,77
439,75	2103,11
439,86	2090,00
439,98	2097,39
440,09	2087,54
440,21	2089,50
440,32	2106,14
440,44	2110,43
440,55	2114,66
440,67	2136,73
440,78	2180,03
440,90	2177,77
441,01	2166,43
441,13	2176,69
441,24	2191,40
441,36	2208,55
441,47	2199,90
441,59	2206,95
441,70	2224,39
441,82	2227,24
441,93	2227,29
442,05	2223,26
442,16	2217,89
442,28	2221,12
442,39	2231,65
442,51	2223,76
442,62	2232,51
442,74	2236,35
442,85	2240,69
442,97	2226,88
443,08	2220,91
443,20	2215,29
443,31	2231,44
443,43	2254,38
443,54	2276,60
443,66	2259,13
443,77	2262,67
443,88	2271,04
444,00	2255,29
444,11	2273,95
444,23	2285,39
444,34	2280,10
444,46	2297,27
444,57	2284,82
444,69	2282,86
444,80	2279,28
444,91	2278,29
445,03	2253,50
445,14	2247,81
445,26	2213,61
445,37	2195,35
445,49	2203,65
445,60	2224,21
445,71	2227,04
445,83	2246,81
445,94	2242,36
446,06	2275,08
446,17	2283,35
446,29	2310,47
446,40	2321,16
446,51	2318,22
446,63	2326,92
446,74	2339,17
446,86	2349,16
446,97	2369,50
447,08	2382,90
447,20	2393,52
447,31	2414,33
447,43	2395,71
447,54	2391,67
447,65	2376,30
447,77	2360,28
447,88	2377,70
448,00	2367,28
448,11	2363,49
448,22	2387,21
448,34	2398,20
448,45	2410,54
448,56	2402,63
448,68	2415,80
448,79	2412,52
448,90	2408,91
449,02	2422,60
449,13	2424,61
449,25	2432,75
449,36	2460,70
449,47	2447,05
449,59	2471,62
449,70	2491,75
449,81	2485,11
449,93	2504,61
450,04	2535,37
450,15	2546,31
450,27	2562,55
450,38	2556,34
450,49	2568,43
450,61	2573,83
450,72	2551,44
450,83	2541,74
450,95	2520,97
451,06	2534,42
451,17	2555,39
451,29	2544,84
451,40	2544,32
451,51	2518,31
451,63	2548,68
451,74	2525,33
451,85	2513,43
451,97	2532,63
452,08	2524,75
452,19	2480,41
452,31	2472,57
452,42	2456,55
452,53	2443,64
452,65	2435,64
452,76	2437,92
452,87	2429,07
452,98	2443,17
453,10	2461,72
453,21	2494,74
453,32	2507,32
453,44	2535,50
453,55	2559,14
453,66	2587,91
453,77	2583,10
453,89	2590,40
454,00	2594,53
454,11	2576,07
454,23	2579,84
454,34	2587,95
454,45	2545,97
454,56	2556,20
454,68	2556,25
454,79	2554,40
454,90	2560,34
455,01	2556,63
455,13	2575,98
455,24	2588,41
455,35	2626,91
455,46	2618,06
455,58	2650,39
455,69	2676,63
455,80	2664,27
455,91	2675,77
456,03	2663,66
456,14	2673,15
456,25	2657,74
456,36	2668,74
456,48	2686,78
456,59	2687,84
456,70	2689,78
456,81	2712,09
456,92	2724,27
457,04	2709,99
457,15	2716,70
457,26	2695,36
457,37	2714,03
457,49	2697,62
457,60	2676,07
457,71	2668,65
457,82	2682,14
457,93	2667,16
458,05	2677,87
458,16	2650,89
458,27	2676,81
458,38	2683,03
458,49	2734,48
458,61	2702,73
458,72	2718,69
458,83	2729,94
458,94	2724,31
459,05	2733,22
459,17	2731,93
459,28	2711,79
459,39	2712,31
459,50	2727,97
459,61	2754,41
459,72	2754,10
459,84	2758,98
459,95	2756,47
460,06	2765,46
460,17	2778,21
460,28	2791,52
460,39	2821,01
460,51	2815,09
460,62	2853,62
460,73	2850,39
460,84	2843,70
460,95	2846,50
461,06	2852,35
461,18	2864,63
461,29	2866,46
461,40	2854,34
461,51	2848,24
461,62	2857,87
461,73	2876,60
461,84	2893,98
461,96	2891,13
462,07	2920,06
462,18	2899,31
462,29	2933,84
462,40	2922,54
462,51	2923,52
462,62	2923,38
462,73	2914,68
462,85	2909,80
462,96	2921,73
463,07	2921,44
463,18	2937,08
463,29	2923,40
463,40	2908,01
463,51	2907,97
463,62	2933,30
463,73	2937,21
463,85	2905,69
463,96	2925,55
464,07	2925,69
464,18	2931,06
464,29	2900,26
464,40	2908,49
464,51	2899,56
464,62	2921,60
464,73	2915,13
464,84	2908,13
464,95	2946,95
465,06	2992,44
465,18	2980,19
465,29	3005,46
465,40	2977,82
465,51	3019,49
465,62	3014,68
465,73	3030,52
465,84	3028,71
465,95	3012,78
466,06	2984,55
466,17	2960,22
466,28	2931,45
466,39	2928,31
466,50	2901,48
466,61	2949,32
466,72	2973,57
466,83	2970,32
466,95	3023,33
467,06	3040,85
467,17	3032,58
467,28	3095,87
467,39	3075,81
467,50	3086,11
467,61	3057,89
467,72	3038,90
467,83	3079,60
467,94	3062,90
468,05	3092,21
468,16	3088,87
468,27	3137,34
468,38	3140,82
468,49	3136,08
468,60	3156,44
468,71	3149,02
468,82	3152,46
468,93	3149,11
469,04	3163,35
469,15	3170,40
469,26	3172,03
469,37	3168,59
469,48	3167,71
469,59	3165,09
469,70	3127,26
469,81	3127,49
469,92	3108,26
470,03	3104,39
470,14	3132,30
470,25	3146,11
470,36	3139,33
470,47	3158,85
470,58	3185,29
470,69	3219,78
470,80	3236,30
470,91	3242,06
471,02	3276,21
471,13	3272,05
471,24	3315,87
471,35	3323,53
471,46	3375,37
471,56	3389,15
471,67	3425,06
471,78	3431,98
471,89	3444,45
472,00	3440,88
472,11	3438,42
472,22	3433,63
472,33	3422,37
472,44	3389,94
472,55	3383,93
472,66	3373,92
472,77	3382,71
472,88	3392,84
472,99	3377,18
473,10	3409,85
473,21	3414,55
473,32	3453,20
473,42	3437,49
473,53	3463,59
473,64	3486,35
473,75	3514,64
473,86	3535,82
473,97	3557,01
474,08	3577,65
474,19	3588,36
474,30	3577,33
474,41	3583,77
474,52	3585,80
474,62	3572,76
474,73	3592,40
474,84	3590,23
474,95	3596,38
475,06	3537,26
475,17	3563,93
475,28	3543,91
475,39	3563,09
475,50	3595,79
475,60	3591,52
475,71	3616,56
475,82	3608,58
475,93	3594,53
476,04	3589,46
476,15	3576,29
476,26	3597,40
476,37	3581,35
476,47	3640,63
476,58	3642,28
476,69	3681,71
476,80	3711,45
476,91	3755,81
477,02	3793,57
477,13	3820,78
477,23	3833,41
477,34	3857,44
477,45	3870,27
477,56	3873,01
477,67	3887,49
477,78	3875,40
477,89	3898,45
477,99	3853,59
478,10	3880,85
478,21	3890,47
478,32	3906,34
478,43	3872,71
478,54	3888,58
478,64	3879,20
478,75	3973,79
478,86	3972,23
478,97	3999,28
479,08	4026,15
479,18	4032,23
479,29	4055,67
479,40	4040,07
479,51	4032,87
479,62	4021,68
479,72	4022,95
479,83	4044,05
479,94	4058,31
480,05	4079,26
480,16	4072,91
480,26	4116,30
480,37	4126,49
480,48	4126,26
480,59	4143,24
480,70	4167,66
480,80	4130,69
480,91	4217,47
481,02	4235,05
481,13	4244,61
481,24	4285,76
481,34	4288,52
481,45	4323,07
481,56	4305,15
481,67	4337,87
481,77	4346,71
481,88	4340,04
481,99	4318,51
482,10	4373,81
482,20	4322,24
482,31	4323,52
482,42	4324,38
482,53	4361,26
482,63	4421,67
482,74	4433,08
482,85	4462,01
482,96	4433,40
483,06	4452,22
483,17	4481,06
483,28	4487,52
483,39	4501,24
483,49	4516,47
483,60	4505,55
483,71	4503,84
483,81	4514,73
483,92	4534,46
484,03	4590,32
484,14	4598,82
484,24	4609,33
484,35	4643,31
484,46	4664,17
484,57	4661,39
484,67	4679,72
484,78	4677,84
484,89	4688,71
484,99	4657,19
485,10	4644,35
485,21	4604,90
485,31	4526,55
485,42	4445,08
485,53	4376,68
485,63	4292,88
485,74	4249,22
485,85	4244,16
485,96	4271,44
486,06	4286,01
486,17	4367,61
486,28	4505,06
486,38	4619,77
486,49	4718,52
486,60	4740,98
486,70	4753,21
486,81	4765,84
486,92	4797,05
487,02	4807,26
487,13	4773,12
487,24	4874,31
487,34	4918,13
487,45	4986,99
487,56	5015,69
487,66	5067,80
487,77	5099,30
487,87	5071,78
487,98	5079,87
488,09	5058,40
488,19	5020,75
488,30	4974,54
488,41	4925,70
488,51	4918,49
488,62	4878,63
488,73	4883,87
488,83	4922,99
488,94	4957,59
489,04	5051,37
489,15	5098,19
489,26	5200,36
489,36	5286,48
489,47	5290,14
489,58	5321,46
489,68	5306,32
489,79	5273,60
489,89	5295,97
490,00	5259,07
490,11	5230,24
490,21	5264,88
490,32	5250,17
490,42	5272,40
490,53	5234,26
490,64	5201,38
490,74	5197,47
490,85	5223,34
490,95	5203,80
491,06	5223,95
491,16	5245,96
491,27	5225,72
491,38	5205,45
491,48	5112,70
491,59	5080,30
491,69	5000,68
491,80	4985,61
491,90	4978,15
492,01	5013,36
492,12	5063,14
492,22	5156,54
492,33	5234,51
492,43	5288,52
492,54	5336,74
492,64	5363,88
492,75	5381,06
492,86	5374,86
492,96	5347,14
493,07	5321,24
493,17	5297,51
493,28	5272,90
493,38	5233,85
493,49	5200,34
493,59	5247,52
493,70	5262,94
493,80	5322,30
493,91	5314,59
494,01	5385,30
494,12	5440,60
494,22	5497,10
494,33	5491,18
494,43	5541,66
494,54	5544,87
494,64	5536,26
494,75	5500,71
494,86	5532,83
494,96	5495,72
495,07	5450,07
495,17	5411,84
495,28	5346,37
495,38	5274,01
495,49	5264,92
495,59	5297,56
495,69	5344,33
495,80	5358,44
495,90	5436,96
496,01	5514,73
496,11	5563,38
496,22	5554,59
496,32	5507,79
496,43	5478,68
496,53	5467,47
496,64	5505,50
496,74	5480,51
496,85	5476,51
496,95	5513,12
497,06	5545,57
497,16	5539,02
497,27	5594,99
497,37	5557,84
497,48	5512,98
497,58	5464,51
497,68	5398,14
497,79	5324,47
497,89	5272,95
498,00	5241,01
498,10	5218,98
498,21	5254,89
498,31	5237,26
498,42	5309,26
498,52	5384,76
498,62	5421,39
498,73	5507,49
498,83	5536,42
498,94	5508,80
499,04	5549,39
499,15	5521,80
499,25	5512,13
499,35	5561,19
499,46	5516,22
499,56	5516,98
499,67	5456,42
499,77	5409,64
499,87	5381,37
499,98	5328,76
500,08	5292,00
500,19	5250,21
500,29	5255,07
500,39	5249,92
500,50	5301,15
500,60	5296,24
500,71	5288,40
500,81	5312,92
500,91	5272,95
501,02	5261,26
501,12	5242,80
501,22	5203,68
501,33	5201,96
501,43	5181,85
501,54	5221,29
501,64	5231,43
501,74	5246,87
501,85	5289,15
501,95	5279,30
502,05	5373,85
502,16	5367,29
502,26	5402,73
502,37	5367,90
502,47	5395,61
502,57	5398,14
502,68	5446,30
502,78	5481,87
502,88	5484,76
502,99	5492,65
503,09	5491,43
503,19	5418,70
503,30	5394,37
503,40	5347,20
503,50	5258,51
503,61	5228,07
503,71	5150,51
503,81	5142,01
503,92	5175,73
504,02	5255,25
504,12	5298,08
504,23	5357,24
504,33	5418,43
504,43	5496,38
504,54	5524,40
504,64	5463,70
504,74	5485,08
504,84	5454,68
504,95	5495,63
505,05	5521,39
505,15	5547,63
505,26	5604,15
505,36	5617,23
505,46	5640,87
505,56	5714,67
505,67	5702,74
505,77	5717,95
505,87	5706,45
505,98	5708,57
506,08	5675,56
506,18	5615,38
506,28	5576,55
506,39	5570,97
506,49	5537,44
506,59	5531,45
506,70	5502,73
506,80	5556,69
506,90	5569,77
507,00	5556,96
507,11	5526,84
507,21	5533,41
507,31	5541,03
507,41	5485,55
507,52	5455,27
507,62	5436,90
507,72	5415,07
507,82	5384,15
507,93	5397,19
508,03	5433,33
508,13	5464,76
508,23	5528,08
508,34	5575,04
508,44	5638,43
508,54	5678,09
508,64	5730,52
508,74	5729,73
508,85	5751,49
508,95	5772,66
509,05	5760,19
509,15	5745,79
509,26	5733,00
509,36	5668,05
509,46	5640,71
509,56	5560,94
509,66	5551,09
509,77	5547,58
509,87	5576,42
509,97	5602,50
510,07	5648,69
510,17	5709,09
510,28	5708,19
510,38	5660,35
510,48	5664,35
510,58	5634,07
510,68	5654,16
510,78	5665,73
510,89	5691,71
510,99	5740,66
511,09	5784,21
511,19	5834,99
511,29	5859,62
511,39	5876,00
511,50	5900,46
511,60	5861,27
511,70	5844,14
511,80	5811,08
511,90	5799,10
512,00	5728,19
512,11	5679,06
512,21	5640,55
512,31	5613,05
512,41	5578,36
512,51	5581,03
512,61	5600,82
512,71	5591,65
512,82	5618,56
512,92	5604,35
513,02	5661,27
513,12	5647,78
513,22	5693,18
513,32	5655,87
513,42	5653,77
513,53	5607,29
513,63	5596,80
513,73	5569,37
513,83	5563,40
513,93	5562,14
514,03	5546,68
514,13	5583,20
514,23	5593,62
514,33	5635,04
514,44	5624,58
514,54	5656,98
514,64	5675,24
514,74	5676,30
514,84	5686,77
514,94	5688,98
515,04	5703,10
515,14	5703,13
515,24	5710,54
515,34	5724,50
515,44	5770,97
515,55	5770,29
515,65	5806,51
515,75	5776,44
515,85	5754,45
515,95	5685,30
516,05	5590,32
516,15	5465,33
516,25	5316,85
516,35	5161,72
516,45	5047,30
516,55	4961,41
516,65	4890,45
516,75	4850,79
516,85	4835,81
516,95	4865,61
517,05	4976,55
517,16	5112,61
517,26	5239,52
517,36	5371,25
517,46	5510,52
517,56	5627,67
517,66	5630,63
517,76	5578,84
517,86	5443,83
517,96	5290,12
518,06	5149,65
518,16	5108,39
518,26	5118,40
518,36	5169,90
518,46	5239,07
518,56	5365,15
518,66	5504,94
518,76	5592,58
518,86	5626,18
518,96	5589,55
519,06	5574,41
519,16	5571,04
519,26	5593,28
519,36	5619,47
519,46	5682,45
519,56	5771,74
519,66	5808,16
519,76	5806,88
519,86	5818,54
519,96	5833,88
520,06	5813,84
520,16	5735,22
520,26	5709,52
520,36	5681,03
520,46	5630,63
520,56	5615,54
520,66	5667,20
520,76	5726,06
520,86	5776,46
520,96	5836,61
521,06	5874,15
521,16	5841,59
521,26	5875,42
521,35	5878,92
521,45	5839,15
521,55	5849,00
521,65	5916,03
521,75	5896,30
521,85	5900,97
521,95	5907,39
522,05	5864,89
522,15	5804,19
522,25	5728,96
522,35	5639,90
522,45	5444,67
522,55	5580,31
522,65	5597,32
522,75	5591,51
522,85	5641,77
522,94	5646,61
523,04	5713,57
523,14	5759,06
523,24	5780,77
523,34	5818,83
523,44	5862,08
523,54	5929,83
523,64	6002,60
523,74	6035,32
523,84	6014,92
523,94	6045,92
524,03	6016,86
524,13	6031,39
524,23	6043,32
524,33	6029,99
524,43	5982,35
524,53	5976,88
524,63	5937,83
524,73	5913,68
524,83	5910,08
524,92	5898,47
525,02	5883,28
525,12	5912,32
525,22	5907,89
525,32	5967,84
525,42	5998,85
525,52	5990,26
525,61	5999,84
525,71	5987,50
525,81	5906,60
525,91	5841,36
526,01	5695,78
526,11	5576,55
526,21	5472,29
526,30	5366,21
526,40	5327,97
526,50	5292,83
526,60	5264,68
526,70	5258,30
526,80	5353,73
526,89	5393,73
526,99	5433,89
527,09	5518,43
527,19	5585,75
527,29	5685,30
527,39	5780,48
527,48	5858,04
527,58	5898,76
527,68	5908,23
527,78	5911,35
527,88	5899,98
527,97	5876,07
528,07	5857,00
528,17	5874,33
528,27	5909,95
528,37	5937,54
528,46	6005,06
528,56	6096,97
528,66	6137,31
528,76	6187,91
528,86	6177,53
528,95	6156,04
529,05	6148,52
529,15	6139,82
529,25	6032,04
529,35	5977,02
529,44	5937,29
529,54	5894,26
529,64	5862,94
529,74	5865,56
529,83	5857,31
529,93	5895,39
530,03	5960,36
530,13	6037,42
530,22	6049,08
530,32	6093,42
530,42	6109,44
530,52	6137,69
530,61	6201,31
530,71	6172,04
530,81	6200,76
530,91	6200,74
531,00	6207,23
531,10	6155,48
531,20	6144,31
531,30	6055,21
531,39	6069,31
531,49	6059,50
531,59	6053,87
531,69	6054,58
531,78	5989,51
531,88	5997,02
531,98	5939,62
532,07	5892,23
532,17	5847,10
532,27	5735,10
532,37	5715,08
532,46	5639,94
532,56	5644,71
532,66	5661,18
532,75	5730,40
532,85	5796,86
532,95	5873,59
533,04	5978,22
533,14	6096,52
533,24	6142,03
533,34	6145,53
533,43	6169,85
533,53	6089,49
533,63	6060,90
533,72	6015,03
533,82	5980,11
533,92	5965,72
534,01	5940,50
534,11	5945,61
534,21	5971,59
534,30	5979,68
534,40	5990,15
534,50	5979,16
534,59	5981,58
534,69	6014,37
534,79	6033,63
534,88	6031,28
534,98	6092,88
535,08	6060,16
535,17	6154,69
535,27	6252,56
535,36	6275,68
535,46	6257,49
535,56	6293,46
535,65	6243,09
535,75	6253,94
535,85	6197,89
535,94	6170,37
536,04	6148,36
536,14	6088,29
536,23	6064,18
536,33	5990,60
536,42	5965,40
536,52	5936,57
536,62	5924,73
536,71	5888,09
536,81	5926,56
536,90	5960,61
537,00	6014,96
537,10	6073,83
537,19	6147,73
537,29	6267,50
537,38	6320,92
537,48	6385,46
537,58	6416,67
537,67	6427,20
537,77	6406,63
537,86	6397,21
537,96	6363,06
538,06	6349,12
538,15	6375,00
538,25	6393,35
538,34	6442,93
538,44	6412,80
538,53	6406,09
538,63	6427,36
538,73	6416,49
538,82	6384,26
538,92	6346,45
539,01	6371,49
539,11	6362,77
539,20	6394,11
539,30	6423,02
539,39	6443,42
539,49	6540,75
539,59	6549,05
539,68	6666,65
539,78	6732,79
539,87	6768,00
539,97	6843,39
540,06	6852,95
540,16	6917,13
540,25	6941,81
540,35	7037,22
540,44	7084,27
540,54	7176,90
540,63	7297,32
540,73	7585,65
540,82	7696,16
540,92	7979,32
541,01	8224,28
541,11	8523,98
541,20	8761,51
541,30	8950,84
541,39	9160,75
541,49	9221,07
541,58	9248,98
541,68	9258,24
541,77	9154,13
541,87	9026,95
541,96	8905,08
542,06	8703,64
542,15	8576,90
542,25	8406,97
542,34	8319,51
542,44	8143,92
542,53	8077,46
542,63	7967,00
542,72	7930,39
542,82	7869,51
542,91	7803,43
543,01	7776,38
543,10	7763,41
543,20	7758,55
543,29	7831,66
543,38	7855,77
543,48	7919,50
543,57	7979,16
543,67	8018,82
543,76	8065,64
543,86	8131,15
543,95	8099,79
544,05	8070,61
544,14	8014,16
544,23	7999,25
544,33	7931,29
544,42	7895,88
544,52	7929,40
544,61	7954,77
544,71	7963,29
544,80	7998,43
544,89	8085,98
544,99	8130,86
545,08	8173,37
545,18	8274,72
545,27	8407,64
545,36	8756,22
545,46	9308,66
545,55	10263,57
545,65	11248,40
545,74	11990,71
545,84	12282,61
545,93	12178,46
546,02	11968,34
546,12	11428,45
546,21	10484,74
546,30	9416,50
546,40	8499,30
546,49	7964,72
546,59	7817,90
546,68	7790,82
546,77	7715,64
546,87	7684,32
546,96	7631,71
547,05	7546,78
547,15	7455,35
547,24	7378,40
547,34	7276,24
547,43	7251,06
547,52	7204,90
547,62	7173,26
547,71	7157,76
547,80	7116,24
547,90	7151,63
547,99	7201,84
548,08	7161,57
548,18	7139,74
548,27	7151,56
548,36	7149,24
548,46	7080,72
548,55	7070,16
548,64	7039,16
548,74	7001,80
548,83	6979,77
548,92	6952,07
549,02	6884,14
549,11	6895,19
549,20	6867,19
549,30	6799,69
549,39	6772,86
549,48	6762,01
549,58	6738,35
549,67	6722,04
549,76	6659,53
549,85	6660,10
549,95	6621,16
550,04	6594,97
550,13	6552,53
550,23	6508,19
550,32	6470,41
550,41	6488,80
550,50	6450,16
550,60	6445,89
550,69	6402,91
550,78	6366,97
550,88	6343,83
550,97	6299,99
551,06	6335,02
551,15	6224,67
551,25	6283,22
551,34	6247,59
551,43	6266,14
551,52	6280,40
551,62	6325,37
551,71	6338,32
551,80	6295,59
551,89	6313,48
551,99	6303,31
552,08	6260,69
552,17	6203,79
552,26	6144,45
552,36	6061,02
552,45	6031,77
552,54	5993,02
552,63	5969,79
552,73	5996,05
552,82	5973,72
552,91	5987,77
553,00	6016,88
553,10	6049,45
553,19	6040,09
553,28	6032,45
553,37	5997,47
553,46	5996,88
553,56	6023,98
553,65	6016,79
553,74	6024,47
553,83	6011,30
553,92	6011,59
554,02	6002,78
554,11	5963,41
554,20	5930,08
554,29	5949,20
554,38	5927,82
554,48	5936,45
554,57	5955,48
554,66	5974,55
554,75	5969,52
554,84	5952,05
554,94	5934,78
555,03	5896,46
555,12	5885,43
555,21	5862,29
555,30	5882,65
555,39	5827,06
555,49	5830,36
555,58	5808,77
555,67	5781,00
555,76	5810,04
555,85	5760,93
555,94	5728,32
556,03	5718,56
556,13	5707,24
556,22	5665,37
556,31	5678,43
556,40	5630,32
556,49	5659,76
556,58	5615,78
556,67	5629,00
556,77	5613,00
556,86	5604,67
556,95	5578,61
557,04	5591,94
557,13	5582,63
557,22	5618,11
557,31	5616,80
557,40	5628,58
557,50	5630,90
557,59	5660,89
557,68	5688,01
557,77	5672,35
557,86	5665,14
557,95	5665,70
558,04	5620,64
558,13	5565,39
558,22	5483,52
558,31	5458,93
558,41	5386,21
558,50	5360,49
558,59	5357,94
558,68	5315,32
558,77	5367,02
558,86	5353,33
558,95	5369,44
559,04	5425,78
559,13	5445,91
559,22	5479,00
559,31	5478,21
559,40	5453,26
559,49	5480,40
559,59	5421,73
559,68	5425,98
559,77	5429,67
559,86	5373,44
559,95	5382,48
560,04	5397,69
560,13	5455,07
560,22	5489,98
560,31	5511,22
560,40	5571,40
560,49	5630,27
560,58	5638,25
560,67	5676,73
560,76	5659,51
560,85	5619,87
560,94	5588,17
561,03	5533,73
561,12	5485,48
561,21	5414,66
561,30	5368,27
561,39	5372,54
561,48	5340,70
561,57	5308,00
561,66	5388,27
561,75	5414,28
561,84	5433,48
561,93	5430,07
562,02	5434,66
562,11	5416,15
562,20	5404,08
562,29	5400,56
562,38	5407,34
562,47	5436,99
562,56	5438,37
562,65	5467,04
562,74	5497,87
562,83	5523,45
562,92	5516,37
563,01	5503,22
563,10	5486,09
563,19	5455,16
563,28	5423,27
563,37	5375,14
563,46	5377,46
563,55	5333,74
563,64	5340,85
563,73	5346,23
563,82	5298,37
563,91	5338,82
564,00	5342,14
564,09	5346,32
564,18	5368,31
564,27	5389,89
564,35	5382,23
564,44	5396,90
564,53	5414,86
564,62	5382,89
564,71	5399,84
564,80	5357,03
564,89	5323,52
564,98	5321,37
565,07	5294,37
565,16	5276,11
565,25	5253,22
565,34	5203,19
565,43	5187,07
565,51	5150,10
565,60	5135,93
565,69	5138,15
565,78	5150,87
565,87	5149,29
565,96	5148,14
566,05	5173,88
566,14	5190,19
566,23	5214,76
566,32	5238,66
566,40	5239,23
566,49	5264,90
566,58	5245,20
566,67	5293,15
566,76	5293,17
566,85	5310,64
566,94	5293,53
567,03	5292,22
567,11	5293,22
567,20	5303,30
567,29	5313,71
567,38	5264,16
567,47	5282,14
567,56	5244,45
567,65	5204,99
567,73	5178,58
567,82	5142,67
567,91	5135,50
568,00	5101,31
568,09	5078,94
568,18	5064,86
568,27	5031,94
568,35	4997,63
568,44	5025,07
568,53	5006,56
568,62	5012,43
568,71	5032,30
568,80	5043,37
568,88	5057,06
568,97	5085,74
569,06	5072,77
569,15	5097,81
569,24	5102,89
569,32	5093,29
569,41	5054,53
569,50	5056,09
569,59	5050,44
569,68	5038,92
569,76	5038,99
569,85	5014,92
569,94	5020,75
570,03	4981,84
570,12	4985,97
570,20	4995,21
570,29	4958,40
570,38	4910,61
570,47	4889,45
570,56	4867,89
570,64	4841,86
570,73	4797,03
570,82	4816,21
570,91	4838,34
570,99	4846,49
571,08	4876,71
571,17	4887,78
571,26	4936,57
571,34	4950,65
571,43	4982,76
571,52	5009,36
571,61	5008,86
571,69	5008,84
571,78	5043,64
571,87	5037,27
571,96	5042,90
572,04	5047,23
572,13	5058,19
572,22	5036,75
572,31	5045,07
572,39	5045,18
572,48	5023,24
572,57	5002,69
572,66	4999,91
572,74	4998,15
572,83	4977,38
572,92	4994,31
573,00	4978,15
573,09	4978,76
573,18	4990,94
573,27	4980,12
573,35	5002,65
573,44	4986,40
573,53	4989,63
573,61	4952,19
573,70	4981,74
573,79	4966,85
573,87	4983,28
573,96	4943,21
574,05	4964,75
574,14	4936,01
574,22	4945,79
574,31	4912,32
574,40	4923,89
574,48	4890,65
574,57	4905,05
574,66	4905,20
574,74	4864,10
574,83	4847,26
574,92	4844,05
575,00	4807,56
575,09	4799,11
575,18	4815,08
575,26	4825,52
575,35	4805,21
575,43	4818,04
575,52	4854,90
575,61	4851,47
575,69	4842,61
575,78	4828,21
575,87	4839,78
575,95	4844,66
576,04	4847,31
576,13	4896,55
576,21	4921,90
576,30	5006,76
576,38	5098,04
576,47	5212,79
576,56	5330,64
576,64	5367,38
576,73	5391,90
576,82	5403,25
576,90	5357,69
576,99	5304,29
577,07	5202,73
577,16	5084,63
577,25	5002,96
577,33	4933,27
577,42	4899,67
577,50	4866,76
577,59	4872,69
577,68	4809,30
577,76	4820,94
577,85	4790,02
577,93	4770,86
578,02	4768,01
578,10	4732,67
578,19	4755,04
578,28	4770,97
578,36	4849,79
578,45	4896,98
578,53	4977,77
578,62	5106,10
578,70	5175,64
578,79	5223,09
578,88	5259,48
578,96	5230,51
579,05	5211,61
579,13	5157,33
579,22	5061,58
579,30	5006,42
579,39	4936,41
579,47	4927,64
579,56	4921,97
579,64	4942,67
579,73	4960,46
579,82	5002,22
579,90	5042,13
579,99	5082,62
580,07	5092,86
580,16	5113,15
580,24	5119,82
580,33	5064,64
580,41	5049,90
580,50	5022,53
580,58	4968,21
580,67	4992,03
580,75	4975,76
580,84	4938,38
580,92	4933,77
581,01	4962,47
581,09	4946,76
581,18	4965,65
581,26	4980,10
581,35	4945,14
581,43	4975,60
581,52	5015,08
581,60	5022,83
581,69	5042,47
581,77	5057,70
581,86	5112,45
581,94	5116,29
582,02	5126,26
582,11	5148,86
582,19	5156,23
582,28	5172,47
582,36	5188,47
582,45	5190,62
582,53	5180,25
582,62	5158,01
582,70	5173,42
582,79	5182,33
582,87	5149,51
582,96	5169,31
583,04	5189,76
583,12	5174,49
583,21	5166,12
583,29	5148,45
583,38	5152,05
583,46	5141,56
583,55	5126,96
583,63	5117,49
583,71	5155,71
583,80	5128,97
583,88	5096,41
583,97	5131,44
584,05	5114,60
584,13	5107,78
584,22	5105,47
584,30	5083,08
584,39	5069,13
584,47	5050,33
584,55	5029,83
584,64	5015,55
584,72	5018,58
584,81	4981,45
584,89	4974,26
584,97	4957,09
585,06	4939,62
585,14	4906,97
585,23	4893,16
585,31	4864,35
585,39	4832,17
585,48	4832,84
585,56	4794,11
585,64	4801,32
585,73	4816,64
585,81	4778,47
585,90	4811,17
585,98	4803,51
586,06	4860,80
586,15	4855,92
586,23	4851,69
586,31	4898,88
586,40	4895,37
586,48	4954,90
586,56	4955,78
586,65	5016,25
586,73	5080,95
586,81	5133,81
586,90	5212,07
586,98	5254,28
587,06	5274,21
587,15	5281,22
587,23	5286,39
587,31	5261,83
587,40	5195,86
587,48	5133,83
587,56	5037,92
587,65	4944,68
587,73	4903,62
587,81	4812,26
587,90	4747,81
587,98	4667,81
588,06	4610,84
588,14	4556,54
588,23	4503,14
588,31	4480,61
588,39	4394,23
588,48	4333,35
588,56	4244,70
588,64	4162,35
588,72	4125,07
588,81	4085,07
588,89	4059,46
588,97	4047,35
589,06	4020,69
589,14	4029,11
589,22	4032,26
589,30	4039,42
589,39	4065,61
589,47	4060,84
589,55	4106,56
589,63	4130,63
589,72	4149,43
589,80	4173,31
589,88	4241,94
589,96	4311,21
590,05	4339,57
590,13	4374,82
590,21	4411,59
590,29	4409,56
590,38	4428,27
590,46	4427,07
590,54	4448,27
590,62	4445,31
590,71	4451,52
590,79	4419,70
590,87	4453,89
590,95	4422,96
591,03	4416,63
591,12	4424,38
591,20	4405,90
591,28	4407,52
591,36	4396,58
591,44	4382,62
591,53	4389,15
591,61	4364,11
591,69	4383,21
591,77	4394,14
591,85	4402,37
591,94	4414,55
592,02	4419,07
592,10	4450,96
592,18	4518,14
592,26	4530,37
592,34	4558,82
592,43	4572,90
592,51	4602,75
592,59	4617,64
592,67	4671,06
592,75	4700,89
592,84	4687,65
592,92	4693,73
593,00	4700,42
593,08	4710,36
593,16	4691,31
593,24	4692,96
593,32	4685,48
593,41	4654,91
593,49	4600,78
593,57	4564,33
593,65	4548,40
593,73	4492,79
593,81	4426,14
593,89	4362,76
593,98	4332,59
594,06	4287,50
594,14	4258,22
594,22	4220,39
594,30	4186,44
594,38	4184,88
594,46	4196,27
594,54	4193,79
594,62	4169,27
594,71	4192,97
594,79	4192,77
594,87	4189,88
594,95	4211,01
595,03	4239,91
595,11	4235,03
595,19	4256,79
595,27	4268,72
595,35	4248,68
595,43	4270,74
595,52	4247,21
595,60	4244,09
595,68	4238,08
595,76	4243,87
595,84	4262,03
595,92	4286,42
596,00	4306,12
596,08	4319,12
596,16	4306,30
596,24	4309,69
596,32	4282,58
596,40	4264,52
596,48	4256,52
596,56	4245,45
596,64	4211,17
596,73	4231,23
596,81	4234,69
596,89	4221,90
596,97	4239,01
597,05	4232,63
597,13	4230,56
597,21	4218,40
597,29	4195,14
597,37	4226,78
597,45	4164,12
597,53	4202,35
597,61	4186,49
597,69	4204,39
597,77	4203,46
597,85	4193,13
597,93	4218,26
598,01	4212,36
598,09	4220,66
598,17	4242,10
598,25	4217,88
598,33	4220,68
598,41	4240,93
598,49	4225,43
598,57	4233,52
598,65	4242,53
598,73	4265,83
598,81	4290,87
598,89	4296,25
598,97	4300,05
599,05	4349,63
599,13	4336,97
599,21	4353,81
599,29	4346,15
599,37	4358,98
599,45	4341,54
599,53	4333,74
599,61	4320,97
599,69	4336,13
599,77	4297,06
599,85	4290,08
599,93	4277,54
600,00	4284,00
600,08	4250,33
600,16	4238,56
600,24	4221,92
600,32	4225,56
600,40	4181,54
600,48	4190,90
600,56	4172,98
600,64	4153,45
600,72	4148,75
600,80	4129,74
600,88	4126,78
600,96	4126,99
601,04	4085,61
601,12	4091,10
601,19	4077,34
601,27	4090,54
601,35	4080,46
601,43	4067,51
601,51	4064,82
601,59	4041,36
601,67	4037,18
601,75	3996,35
601,83	4013,45
601,91	3993,95
601,98	3987,78
602,06	3984,73
602,14	3993,34
602,22	3994,09
602,30	4002,36
602,38	4007,87
602,46	4014,97
602,54	4029,30
602,61	4024,53
602,69	4033,57
602,77	4031,78
602,85	4038,85
602,93	4040,78
603,01	4045,11
603,09	4059,83
603,17	4054,94
603,24	4083,78
603,32	4068,10
603,40	4055,89
603,48	4075,62
603,56	4046,85
603,64	4047,53
603,71	4040,93
603,79	4071,62
603,87	4050,38
603,95	4038,94
604,03	4018,24
604,11	4035,89
604,18	4025,02
604,26	4023,62
604,34	4032,44
604,42	4025,97
604,50	4038,70
604,57	4029,25
604,65	4011,40
604,73	4041,77
604,81	4037,68
604,89	4004,71
604,96	4013,88
605,04	3993,27
605,12	3982,90
605,20	3977,07
605,28	3981,25
605,35	3974,18
605,43	3981,25
605,51	3970,97
605,59	3957,34
605,67	3980,30
605,74	3957,70
605,82	3961,77
605,90	3967,17
605,98	3973,27
606,05	3967,60
606,13	3947,08
606,21	3945,64
606,29	3951,72
606,36	3967,60
606,44	3949,64
606,52	3947,13
606,60	3947,06
606,67	3958,99
606,75	3950,86
606,83	3965,03
606,91	3976,10
606,98	3974,22
607,06	3982,45
607,14	3981,36
607,22	3978,34
607,29	3975,51
607,37	3967,62
607,45	3962,09
607,52	3950,16
607,60	3932,53
607,68	3943,24
607,76	3941,25
607,83	3932,48
607,91	3939,13
607,99	3934,95
608,06	3953,75
608,14	3936,76
608,22	3949,09
608,30	3956,53
608,37	3956,57
608,45	3952,33
608,53	3976,03
608,60	3978,88
608,68	3970,95
608,76	4016,96
608,83	4034,56
608,91	4026,65
608,99	4041,86
609,06	4054,11
609,14	4074,18
609,22	4111,01
609,29	4128,00
609,37	4149,68
609,45	4168,16
609,52	4192,36
609,60	4223,80
609,68	4256,27
609,75	4309,78
609,83	4328,04
609,91	4389,38
609,98	4431,52
610,06	4488,99
610,13	4575,38
610,21	4695,92
610,29	4799,40
610,36	4962,81
610,44	5164,18
610,52	5383,18
610,59	5648,91
610,67	5976,50
610,74	6272,31
610,82	6623,26
610,90	6962,78
610,97	7282,88
611,05	7552,25
611,13	7777,69
611,20	7905,65
611,28	7947,93
611,35	7929,92
611,43	7795,66
611,51	7574,35
611,58	7276,15
611,66	7023,61
611,73	6673,41
611,81	6392,89
611,88	6053,42
611,96	5851,98
612,04	5584,60
612,11	5373,44
612,19	5216,61
612,26	5051,26
612,34	4946,51
612,41	4869,70
612,49	4772,58
612,57	4683,52
612,64	4658,36
612,72	4604,74
612,79	4585,76
612,87	4530,55
612,94	4496,13
613,02	4484,47
613,09	4457,35
613,17	4400,36
613,24	4356,41
613,32	4337,69
613,40	4282,62
613,47	4277,76
613,55	4212,70
613,62	4215,10
613,70	4163,69
613,77	4145,38
613,85	4151,33
613,92	4133,83
614,00	4133,38
614,07	4136,86
614,15	4130,08
614,22	4124,46
614,30	4118,42
614,37	4130,72
614,45	4096,50
614,52	4091,03
614,60	4084,41
614,67	4086,13
614,75	4025,95
614,82	4009,48
614,90	3982,74
614,97	3948,26
615,05	3923,38
615,12	3863,15
615,20	3869,84
615,27	3798,91
615,34	3779,13
615,42	3742,30
615,49	3709,55
615,57	3658,73
615,64	3624,56
615,72	3584,00
615,79	3547,45
615,87	3496,27
615,94	3482,37
616,02	3438,82
616,09	3388,54
616,16	3370,65
616,24	3356,93
616,31	3315,85
616,39	3314,67
616,46	3292,89
616,54	3293,13
616,61	3283,78
616,68	3255,44
616,76	3237,70
616,83	3240,71
616,91	3222,76
616,98	3215,62
617,06	3216,48
617,13	3192,44
617,20	3182,36
617,28	3169,86
617,35	3171,04
617,43	3169,02
617,50	3151,42
617,57	3132,87
>>>>>End Processed Spectral Data<<<<<
